global_

data_phase1

_cell_length_a 4.909000
_cell_length_b 4.909000
_cell_length_c 3.977000
_cell_angle_alpha 90.000000
_cell_angle_beta 90.000000
_cell_angle_gamma 120.000000

loop_
_atom_site_label
_atom_site_type_symbol
_atom_site_fract_x
_atom_site_fract_y
_atom_site_fract_z
_atom_site_occupancy
_atom_site_adp_type
_atom_site_U_iso_or_equiv
   Tb   Tb3+   0.000000   0.000000   0.000000   1.0   Uiso   0.003
  Ni1   Ni2+   0.500000   0.000000   0.500000   0.5   Uiso   0.003
  Co1   Co2+   0.500000   0.000000   0.500000   0.5   Uiso   0.003
  Ni2   Ni2+   0.333333   0.666666   0.000000   0.5   Uiso   0.003
  Co2   Co2+   0.333333   0.666666   0.000000   0.5   Uiso   0.003

loop_
_atom_site_scat_label
_atom_site_scat_type_symbol
_atom_site_scat_Lande
_atom_site_scat_kappa
   Tb   Tb3+   1.5   1.0
  Ni1   Ni2+   2.0   1.0
  Co1   Co2+   2.0   1.0
  Ni2   Ni2+   2.0   1.0
  Co2   Co2+   2.0   1.0

loop_
_atom_site_moment_label
_atom_site_moment_crystalaxis_x
_atom_site_moment_crystalaxis_y
_atom_site_moment_crystalaxis_z
_atom_site_moment_symmform
   Tb   0.0   0.0    8.3   Mx,My,Mz
  Ni1   0.0   0.0   -1.0   Mx,My,Mz
  Co1   0.0   0.0   -1.0   Mx,My,Mz
  Ni2   0.0   0.0   -1.2   Mx,My,Mz
  Co2   0.0   0.0   -1.2   Mx,My,Mz

loop_
_space_group_symop_magn_operation_xyz
_space_group_symop_magn_operation_id
       x,y,z,+1    1
    -y,x-y,z,+1    2
   -x+y,-x,z,+1    3
     -x,-y,z,+1    4
    y,-x+y,z,+1    5
     x-y,x,z,+1    6
      y,x,-z,+1    7
   x-y,-y,-z,+1    8
  -x,-x+y,-z,+1    9
    -y,-x,-z,+1   10
   -x+y,y,-z,+1   11
    x,x-y,-z,+1   12
    -x,-y,-z,-1   13
   y,-x+y,-z,-1   14
    x-y,x,-z,-1   15
      x,y,-z,-1   16
   -y,x-y,-z,-1   17
  -x+y,-x,-z,-1   18
     -y,-x,z,-1   19
    -x+y,y,z,-1   20
     x,x-y,z,-1   21
       y,x,z,-1   22
    x-y,-y,z,-1   23
   -x,-x+y,z,-1   24

loop_
_space_group_symop_magn_centering_xyz
_space_group_symop_magn_centering_id
  x,y,z,+1   1


data_powder1

_setup_wavelength 2.4100
_setup_field 2.00
_setup_offset_2theta -0.070
_setup_radiation neutrons
_setup_K 0.0
_setup_cthm 0.91000

_pd_instr_resolution_U 0.71481
_pd_instr_resolution_V -0.61515
_pd_instr_resolution_W 0.2904451513947121()
_pd_instr_resolution_X 0.29000
_pd_instr_resolution_Y 0.00000

_diffrn_radiation_polarization 1.0
_diffrn_radiation_efficiency 1.0

_chi2_sum True
_chi2_diff True
_chi2_up False
_chi2_down False

_range_2theta_min 6.0
_range_2theta_max 90.0
_range_phi_min .
_range_phi_max .
_range_time_min .
_range_time_max .
_range_gamma_min .
_range_gamma_max .
_range_nu_min .
_range_nu_max .

_pd_instr_reflex_asymmetry_p1 -0.06208
_pd_instr_reflex_asymmetry_p2 0.01798
_pd_instr_reflex_asymmetry_p3 0.18012
_pd_instr_reflex_asymmetry_p4 -0.0436

loop_
_phase_label
_phase_scale
_phase_igsize
  phase1   750.0   0.0

loop_
_pd_background_2theta
_pd_background_intensity
    3.05    58.13992181881744
    3.15    58.10964468510443
    3.25    58.07438057330587
    3.35    58.03379174232199
    3.45    57.98754021635217
    3.55    57.93528898760064
    3.65    57.87670347942473
    3.75    57.81145304345552
    3.85    57.73921248295743
    3.95    57.65966359386948
    4.05   57.572496715193616
    4.15   57.479027800084346
    4.25   57.379226156108274
    4.35   57.273086850312474
    4.45    57.16062744894147
    4.55    57.04189286354714
    4.65    56.91695598161104
    4.75   56.785918152679876
    4.85   56.648909514536086
    4.95   56.506089163804305
    5.05    56.35764235315966
    5.15     56.2036239181514
    5.25   56.044177692336895
    5.35    55.87938674537506
    5.45    55.70942520719832
    5.55    55.53448137320657
    5.65    55.35475650118596
    5.75    55.17046334394073
    5.85    54.98182478623785
    5.95   54.789019575224714
    6.05    54.59094204905464
    6.15    54.38920352390934
    6.25   54.182672187063744
    6.35   53.973056732088565
    6.45    53.76066557017007
    6.55    53.54581263474348
    6.65   53.328812900824495
    6.75    53.10998474043777
    6.85    52.88865787418339
    6.95    52.64142234677257
    7.05    52.41829314811751
    7.15    52.16876346998955
    7.25    51.94558598760774
    7.35    51.72297068187722
    7.45   51.501209548006315
    7.55     51.2805231335717
    7.65    51.06118886590928
    7.75     50.8249063145212
    7.85   50.635348358733395
    7.95    50.39840967571157
    8.05    50.21764510328295
    8.15    49.98712109950674
    8.25    49.78692234844346
    8.35    49.58939312978414
    8.45     49.3934974511595
    8.55    49.20063718423622
    8.65    49.03049736452922
    8.75   48.825922081623965
    8.85    48.66888120545999
    8.95   48.490088687176424
    9.05    48.34037119848536
    9.15   48.167279932379444
    9.25    47.99355379642769
    9.35    47.80100585332937
    9.45    47.63614733734404
    9.55   47.474076994601745
    9.65   47.326482257759636
    9.75   47.169675973784905
    9.85    47.01398582130318
    9.95    46.86068591948532
   10.05    46.70828997071505
   10.15   46.561663633719796
   10.25    46.43675669904608
   10.35     46.2676466332406
   10.45   46.126771282589914
   10.55    45.99499517746713
   10.65     45.8503774870008
   10.75    45.71466177409967
   10.85   45.580634861578424
   10.95    45.44820039594167
   11.05   45.317336333227644
   11.15    45.19127801281213
   11.25    45.08807464432932
   11.35   44.961068523669155
   11.45    44.83500516193958
   11.55    44.71659977018987
   11.65    44.59213809972832
   11.75    44.46834177714598
   11.85    44.34512291924942
   11.95    44.22239822464491
   12.05    44.10008392347484
   12.15   43.977923546594916
   12.25   43.854714507098976
   12.35    43.73168146165372
   12.45   43.608780051089056
   12.55    43.48561269164243
   12.65    43.36249748427364
   12.75    43.23941202047173
   12.85      43.116341503936
   12.95    42.99325928193023
   13.05    42.87016621565336
   13.15   42.747080634690185
   13.25    42.62342376121475
   13.35    42.49987130944969
   13.45    42.37646018447309
   13.55    42.25300677705564
   13.65    42.12979575013758
   13.75    42.00688323506465
   13.85    41.88396085533615
   13.95    41.76146672050069
   14.05       41.63947332067
   14.15    41.50544372675032
   14.25    41.38441799740811
   14.35    41.26422472919208
   14.45    41.14028238252497
   14.55    41.02179205940526
   14.65    40.90439664167245
   14.75    40.78116093433354
   14.85   40.666230270553484
   14.95   40.552664035789526
   15.05    40.45383967423435
   15.15    40.32432924235993
   15.25    40.21659823379139
   15.35   40.110840421985316
   15.45    40.00209475003361
   15.55    39.89968364393639
   15.65    39.80635046741535
   15.75   39.700665112352425
   15.85    39.60408457798529
   15.95    39.50922456891024
   16.05    39.43593318473133
   16.15    39.33783972616972
   16.25   39.251986210850596
   16.35   39.163261145899355
   16.45    39.07621939872201
   16.55    38.99072778088414
   16.65   38.913879921985185
   16.75    38.83136288396741
   16.85   38.750463658445284
   16.95   38.670567658057195
   17.05    38.59855545420331
   17.15    38.49969692211974
   17.25    38.42199692211974
   17.35      38.348331142156
   17.45     38.2753632197395
   17.55   38.205683482107005
   17.65   38.132827923179235
   17.75   38.066955053271755
   17.85   37.991152827203805
   17.95   37.929718478957184
   18.05   37.893084453444985
   18.15    37.82241298038048
   18.25   37.763421064612395
   18.35   37.715090912550636
   18.45    37.66651983674271
   18.55     37.6266931839554
   18.65    37.57937199670411
   18.75    37.55212937412984
   18.85    37.50277295394936
   18.95   37.468220621258936
   19.05    37.45726526322902
   19.15   37.432995989642556
   19.25   37.403663899604254
   19.35    37.37704708654493
   19.45    37.35048213518945
   19.55   37.329985710157786
   19.65    37.30568840906806
   19.75   37.294417589672065
   19.85   37.271786908067156
   19.95    37.24976861848706
   20.05    37.22711266630007
   20.15    37.20451332448698
   20.25     37.1822306336081
   20.35     37.1601123315068
   20.45   37.138147086817405
   20.55    37.11600385630147
   20.65    37.09387335822138
   20.75    37.07105732614621
   20.85   37.048145451661725
   20.95     37.0250954621082
   21.05    37.00193072826794
   21.15    36.97863784417777
   21.25   36.955189482808166
   21.35   36.931566260584816
   21.45     36.9077492857285
   21.55    36.88373710610922
   21.65    36.85951814233914
   21.75   36.835117680958774
   21.85    36.81052988213715
   21.95   36.785751119132655
   22.05   36.760776530387346
   22.15   36.735602029519825
   22.25   36.710225123116864
   22.35   36.684644467997735
   22.45     36.6588589294989
   22.55    36.63286780007951
   22.65    36.60667146909811
   22.75    36.58026961984241
   22.85    36.55366185340568
   22.95   36.526847946896936
   23.05    36.49982909430884
   23.15    36.47260806813316
   23.25    36.44518723215968
   23.35    36.41755170825027
   23.45    36.38970804519644
   23.55     36.3616653071914
   23.65    36.33343523279827
   23.75    36.30501042993582
   23.85    36.27639061254149
   23.95   36.247597534628625
   24.05   36.218656759625645
   24.15   36.189557983448466
   24.25    36.15997584586747
   24.35   36.130311812055815
   24.45    36.10061241444023
   24.55   36.070928271436635
   24.65    36.04089957883779
   24.75    36.01066053212781
   24.85    35.98062398084851
   24.95    35.95086269684539
   25.05    35.92070325057759
   25.15    35.88422896081134
   25.25    35.85508493739409
   25.35    35.82660716788668
   25.45   35.798881576000426
   25.55    35.76420615234795
   25.65    35.73187804677248
   25.75   35.707094398847595
   25.85    35.68350522735009
   25.95    35.64706976925193
   26.05    35.63332202352855
   26.15   35.607536605711005
   26.25     35.5904276831867
   26.35    35.57489965197098
   26.45   35.569202489653414
   26.55    35.55629621701862
   26.65   35.540350488709485
   26.75    35.53280236642715
   26.85    35.54174282676308
   26.95   35.523934398421716
   27.05    35.52928039242928
   27.15    35.52926017190926
   27.25    35.53055600250482
   27.35    35.53309292871634
   27.45   35.544576552105426
   27.55    35.55570589208778
   27.65    35.56127252342783
   27.75     35.5676077307122
   27.85   35.588726215318445
   27.95    35.59619066045272
   28.05    35.60365538124011
   28.15    35.61138774493841
   28.25   35.619297647057735
   28.35    35.62729734077825
   28.45    35.63488775523544
   28.55    35.64206321588192
   28.65    35.64909750102337
   28.75    35.65592516166512
   28.85   35.661737066209135
   28.95    35.66723479448697
   29.05   35.672395899915934
   29.15   35.677184099587706
   29.25    35.68156849120764
   29.35    35.68552360680248
   29.45    35.68904163414114
   29.55     35.6921260875421
   29.65     35.6947522566534
   29.75    35.69691522750245
   29.85    35.69865462393988
   29.95   35.699974412334036
   30.05     35.7008813708947
   30.15    35.70138586888121
   30.25   35.701501605938944
   30.35   35.701067996670055
   30.45     35.7002828792853
   30.55   35.698895729484974
   30.65   35.697206314788076
   30.75   35.695243685405146
   30.85    35.69303618709412
   30.95    35.69061324793439
   31.05    35.68800511531103
   31.15   35.685242544357116
   31.25    35.67916170011004
   31.35   35.676212435460116
   31.45    35.66821765270136
   31.55   35.665275654853936
   31.65    35.66240163905317
   31.75    35.65962136794572
   31.85    35.65695873826949
   31.95     35.6544356265207
   32.05    35.65207175951147
   32.15    35.65326715181967
   32.25    35.64824204564471
   32.35    35.65209747441151
   32.45    35.64609964704676
   32.55    35.64560336578009
   32.65    35.64530430456896
   32.75   35.645196729284116
   32.85    35.64527317340638
   32.95    35.64552463312943
   33.05    35.64594077688062
   33.15    35.64966818662051
   33.25    35.65027598620256
   33.35   35.655959720092305
   33.45    35.65663901940916
   33.55    35.65731608484449
   33.65    35.65798200168676
   33.75   35.658629278526966
   33.85    35.65925200286802
   33.95   35.659845973573645
   34.05    35.65972059628618
   34.15    35.65939412596195
   34.25   35.659055324113496
   34.35    35.65844492597611
   34.45    35.65785352094011
   34.55    35.65730072762719
   34.65    35.65680747754672
   34.75    35.65639579876475
   34.85    35.65608857992015
   34.95   35.643029697085616
   35.05   35.643112549327746
   35.15    35.64349019514236
   35.25   35.644184063302504
   35.35    35.64522870562226
   35.45    35.64664169539523
   35.55    35.64843819325908
   35.65    35.65063072019715
   35.75   35.653228951328245
   35.85    35.66984621539339
   35.95   35.661042348660025
   36.05    35.66624932656128
   36.15   35.671844967528195
   36.25    35.67781051549625
   36.35    35.68412323075315
   36.45   35.690757315932636
   36.55    35.69768406427658
   36.65    35.70487203390448
   36.75    35.71228724653874
   36.85   35.732773028866006
   36.95    35.74042145133746
   37.05   35.748073005033376
   37.15   35.755688094434916
   37.25    35.76322692558451
   37.35    35.77064981785628
   37.45    35.77791746841415
   37.55    35.78499121066578
   37.65    35.79183326434375
   37.75   35.798406974945095
   37.85    35.80398882824225
   37.95    35.80924115877656
   38.05    35.81413976431932
   38.15     35.8186622100678
   38.25    35.82278790281492
   38.35    35.82649814440562
   38.45    35.82977616679415
   38.55   35.832607148839365
   38.65    35.83497821517102
   38.75    35.83687841765105
   38.85   35.838335474562655
   38.95    35.83934164568384
   39.05    35.83989044717559
   39.15    35.83997658476924
   39.25   35.839595878428604
   39.35    35.83874518231356
   39.45    35.83742230134212
   39.55     35.8356259056554
   39.65    35.83335544428086
   39.75    35.83061105926389
   39.85   35.827391536447266
   39.95    35.82369622288646
   40.05   35.819524982733135
   40.15    35.81487811227196
   40.25     35.8097563053855
   40.35   35.804160624888105
   40.45   35.798092479998616
   40.55    35.79155361011219
   40.65    35.78454607492054
   40.75   35.777072250819955
   40.85   35.769134938441674
   40.95    35.76073736883115
   41.05   35.751882380204044
   41.15    35.74257327790493
   41.25    35.73281386387966
   41.35    35.72260846778265
   41.45    35.71196197897369
   41.55   35.700879878631106
   41.65    35.68936827119102
   41.75   35.677433914316616
   41.85    35.66508424010582
   41.95    35.65231194310622
   42.05    35.63912608320991
   42.15   35.625536663374014
   42.25     35.6115546312341
   42.35    35.59719187294444
   42.45    35.58246119889138
   42.55    35.56737632101587
   42.65   35.551951821577276
   42.75    35.53620311253714
   42.85    35.51986054651396
   42.95    35.50323021888668
   43.05   35.486333009776786
   43.15   35.469190318835466
   43.25    35.45182395132689
   43.35     35.4342559985518
   43.45    35.41650871353496
   43.55     35.3986043829685
   43.65   35.380565210509076
   43.75    35.35712036818612
   43.85   35.338923341573704
   43.95    35.32070200502793
   44.05    35.30247595963868
   44.15    35.28426362158799
   44.25    35.26608211131457
   44.35    35.24794715187116
   44.45    35.22987297747338
   44.55    35.21187222599722
   44.65    35.19955090150568
   44.75   35.176705185366444
   44.85   35.159550833236054
   44.95    35.14249378069344
   45.05    35.12553321727285
   45.15   35.108666680883566
   45.25    35.09189011134921
   45.35   35.075197917796494
   45.45    35.05858307988754
   45.55   35.042037118714944
   45.65   35.030843193230425
   45.75    35.01435863200824
   45.85   34.997864876496315
   45.95   34.981350033181485
   46.05    34.96480181052502
   46.15    34.94820764673212
   46.25    34.93155486659134
   46.35    34.91483083768674
   46.45     34.8980232169271
   46.55    34.88111989633391
   46.65    34.86382355258678
   46.75   34.846412593116895
   46.85   34.828878154366265
   46.95    34.81121239062047
   47.05   34.793408204778366
   47.15    34.77545984156572
   47.25    34.75736304203113
   47.35    34.73911516811164
   47.45     34.7207154595001
   47.55    34.70216495756594
   47.65    34.68348216624819
   47.75    34.66462887819559
   47.85   34.645612597685776
   47.95    34.62643541433741
   48.05   34.607110194129625
   48.15     34.5876525613359
   48.25   34.568080877775564
   48.35    34.54841616946938
   48.45    34.52868213985394
   48.55    34.50890498382388
   48.65    34.48829561776667
   48.75   34.467709987268115
   48.85   34.447039708033884
   48.95    34.42647880255111
   49.05    34.40607320911553
   49.15    34.38586994552271
   49.25   34.365916777454515
   49.35    34.34626186697713
   49.45    34.32695337871949
   49.55    34.29257700289073
   49.65   34.274233050253365
   49.75   34.253718106275784
   49.85    34.23667027288397
   49.95    34.22034243336735
   50.05    34.20477017891429
   50.15    34.18998559563312
   50.25    34.17601711082071
   50.35    34.16288791470058
   50.45   34.166938933751766
   50.55    34.14084348117237
   50.65    34.13488037352757
   50.75   34.124184158696586
   50.85    34.11727394492434
   50.95   34.111189005077165
   51.05    34.10591008970621
   51.15    34.10141582282662
   51.25    34.09765552113211
   51.35    34.09455192649272
   51.45    34.10754322645296
   51.55    34.10555285345525
   51.65    34.10680790849307
   51.75   34.105693992910865
   51.85    34.10498201126299
   51.95    34.10466030526701
   52.05    34.10472091856908
   52.15   34.104639815374554
   52.25    34.10393572148557
   52.35       34.10363688563
   52.45   34.102951572175634
   52.55    34.10273457032368
   52.65   34.102877753641195
   52.75   34.103576706191426
   52.85     34.1048800927488
   52.95    34.10683865658549
   53.05   34.099701950999744
   53.15   34.084158542068565
   53.25    34.08872426505549
   53.35    34.09439667874989
   53.45    34.10126646410293
   53.55    34.10937697849383
   53.65   34.118774901800435
   53.75    34.12949357595705
   53.85   34.141560569096136
   53.95    34.16534911006664
   54.05     34.1909746965149
   54.15    34.19011751699635
   54.25    34.21073560235296
   54.35    34.23268099748958
   54.45    34.25591284544434
   54.55   34.280383614476655
   54.65     34.3060389264884
   54.75    34.33281830870101
   54.85    34.36065556617187
   54.95    34.39928194777323
   55.05    34.44798585553318
   55.15   34.478224516103474
   55.25    34.50896947118527
   55.35    34.54013829824231
   55.45   34.571648242181276
   55.55    34.60341675435716
   55.65   34.635362045402765
   55.75   34.667403600333984
   55.85   34.699462674407826
   55.95    34.73094278847384
   56.05    34.76128886930878
   56.15    34.79145433108996
   56.25    34.82138873829551
   56.35   34.851045054552884
   56.45    34.88037976247719
   56.55   34.909352946581265
   56.65    34.93792833808294
   56.75    34.96607332333296
   56.85    34.99375891672048
   56.95    35.02098727988515
   57.05   35.047789309659336
   57.15     35.0741448922159
   57.25   35.100035998478695
   57.35   35.125446535140014
   57.45    35.15036218521807
   57.55   35.174770240573785
   57.65    35.19865942890514
   57.75   35.222019737673094
   57.85    35.24484223738634
   57.95    35.26711744367682
   58.05   35.288833820172634
   58.15    35.30998049868355
   58.25    35.33054719274449
   58.35   35.350524119112116
   58.45   35.369901928051036
   58.55   35.388671643089886
   58.65    35.40682461077101
   58.75    35.42435246075016
   58.85     35.4412470752439
   58.95   35.457500646693234
   59.05    35.47310581558485
   59.15     35.4880556654911
   59.25    35.50234372378006
   59.35    35.51596396766918
   59.45    35.52891083508371
   59.55    35.54117923989296
   59.65   35.552764590800024
   59.75    35.56366279210852
   59.85    35.57387026886019
   59.95    35.58338399046769
   60.05    35.59220148868653
   60.15    35.60032087755652
   60.25   35.607740875093036
   60.35    35.61446082359009
   60.45   35.620480711310016
   60.55    35.62580119047661
   60.65    35.63042322135636
   60.75    35.63434847372819
   60.85    35.63757935501178
   60.95    35.64011903968359
   61.05    35.64197150034147
   61.15   35.643141540356304
   61.25    35.64363477304116
   61.35    35.64345765778228
   61.45     35.6426174447817
   61.55   35.641115638396165
   61.65    35.63896128037035
   61.75    35.63616442996553
   61.85    35.63273621194985
   61.95    35.62868886596223
   62.05    35.62403579694854
   62.15    35.61879059440176
   62.25    35.61296812275145
   62.35   35.606582820997254
   62.45    35.59953582584834
   62.55    35.59196028391639
   62.65    35.58387639511139
   62.75    35.57530598329598
   62.85   35.566272555682936
   62.95     35.5568013582065
   63.05   35.546900071886654
   63.15    35.53659764409321
   63.25    35.52589181114593
   63.35    35.51282795597251
   63.45     35.5014296493788
   63.55   35.489750581448725
   63.65    35.47783081797186
   63.75     35.4657126501996
   63.85    35.45344057135381
   63.95   35.440698329918355
   64.05   35.427898080931556
   64.15   35.414465923538806
   64.25    35.40312534374376
   64.35    35.38791385218996
   64.45     35.3749800592255
   64.55    35.36228077298332
   64.65    35.34987987436688
   64.75   35.337842526478056
   64.85    35.31943141946634
   64.95    35.30831116208131
   65.05    35.28596032722342
   65.15    35.27492939579005
   65.25   35.267773898426526
   65.35   35.259453791758965
   65.45    35.25202191572084
   65.55   35.245546150251215
   65.65   35.240093191424165
   65.75   35.242251136886736
   65.85    35.23198762143934
   65.95    35.24122503384697
   66.05   35.229372770219776
   66.15    35.22903395144968
   66.25   35.231178116657844
   66.35    35.23478226327704
   66.45    35.23989312910287
   66.55    35.24655208836768
   66.65   35.243176916907856
   66.75   35.259903936604324
   66.85    35.24759712145013
   66.95   35.272883079247634
   67.05    35.28934237803065
   67.15    35.30646860522123
   67.25    35.32537585843165
   67.35    35.34604101514953
   67.45   35.368431448624534
   67.55   35.404786729866345
   67.65    35.41946614315269
   67.75    35.47292116595773
   67.85   35.479827981146336
   67.95    35.51278135527266
   68.05   35.546935863194896
   68.15   35.582239417428276
   68.25    35.61856832155791
   68.35    35.65579233036867
   68.45     35.6937753280519
   68.55    35.74399382961819
   68.65     35.7829647757913
   68.75    35.84611981897768
   68.85   35.885217299259274
   68.95   35.924083401386106
   69.05    35.96257289964983
   69.15    36.00053858451758
   69.25    36.03783566011779
   69.35    36.07432245778584
   69.45   36.109861116881824
   69.55    36.14369015687454
   69.65    36.17631662410137
   69.75   36.206343679153406
   69.85    36.23495572811129
   69.95   36.262061316908884
   70.05   36.287575211533735
   70.15    36.31141877099861
   70.25   36.333520062986125
   70.35    36.35381392909317
   70.45    36.37224200083853
   70.55    36.38878660625595
   70.65    36.40340232106434
   70.75   36.416118304708185
   70.85    36.42690025534092
   70.95   36.435718788620875
   71.05    36.44254925693345
   71.15    36.44737153962733
   71.25    36.45016981852585
   71.35    36.45093234193611
   71.45     36.4496511804253
   71.55    36.44632014410275
   71.65   36.440936395511685
   71.75   36.433496566984914
   71.85    36.42400026392647
   71.95   36.412449907970114
   72.05     36.3988505826773
   72.15   36.383209878504175
   72.25     36.3655377478271
   72.35    36.34584637160274
   72.45     36.3241500286969
   72.55   36.300465078608596
   72.65    36.27480985843942
   72.75    36.24720479034566
   72.85    36.21767230505527
   72.95    36.18623671423396
   73.05     36.1529239904635
   73.15    36.11776173580828
   73.25    36.08077916839156
   73.35    36.04200693100052
   73.45    36.00147711645363
   73.55   35.959223300283355
   73.65   35.915280600346506
   73.75   35.869685744014724
   73.85    35.82247596429422
   73.95   35.773687088981774
   74.05      35.723356944911
   74.15    35.67152555387034
   74.25    35.61823163794824
   74.35    35.56351658323961
   74.45    35.50742458385961
   74.55   35.450003024705715
   74.65   35.391302732336584
   74.75   35.331356111343226
   74.85    35.27016118372846
   74.95   35.207781921057595
   75.05    35.14428769568105
   75.15    35.07968355926219
   75.25   35.014050915341436
   75.35    34.94747581106034
   75.45    34.88005264066081
   75.55    34.81188212337851
   75.65    34.74266023931988
   75.75    34.67177061912683
   75.85    34.60049353926718
   75.95    34.52896946050005
   76.05   34.456024326111034
   76.15    34.38313949853585
   76.25     34.3104526732568
   76.35    34.23815838120555
   76.45   34.166424077588566
   76.55   34.087785244403605
   76.65    33.99615401036926
   76.75    33.92740609905701
   76.85     33.8601149104272
   76.95    33.76952681614429
   77.05    33.70579328221125
   77.15     33.6437734561365
   77.25    33.58432341823888
   77.35    33.52717821493261
   77.45    33.48049189074265
   77.55   33.443754140076635
   77.65   33.374309514639215
   77.75   33.330191778347476
   77.85   33.314905956323486
   77.95    33.25219457200118
   78.05    33.21864741873808
   78.15    33.18676946792303
   78.25    33.15761604580411
   78.35   33.130696579722496
   78.45    33.11353616955168
   78.55   33.112269909969314
   78.65    33.09105582995333
   78.75   33.071340768235146
   78.85    33.07788510461071
   78.95    33.06053073338654
   79.05   33.044398641105445
   79.15   33.028599887849644
   79.25    33.01335387273562
   79.35   32.998514151057485
   79.45   32.983526052019066
   79.55    32.96752035985788
   79.65   32.951523614840376
   79.75    32.93542296306431
   79.85    32.91779276299035
   79.95    32.89986581865588
   80.05   32.881535569865044
   80.15   32.862757842138734
   80.25    32.84346814609893
   80.35   32.823609232060306
   80.45   32.803153208597585
   80.55   32.782117666682524
   80.65    32.76046541793255
   80.75   32.738165019779146
   80.85    32.71526037924437
   80.95    32.69172986932715
   81.05    32.66755773441485
   81.15   32.642729994434696
   81.25   32.617235988211355
   81.35     32.5910680312684
   81.45    32.56421987816756
   81.55    32.53668435986741
   81.65     32.5084563247436
   81.75   32.479532366519464
   81.85    32.44990686354535
   81.95    32.41957548499166
   82.05   32.388534892413055
   82.15   32.356782701156774
   82.25   32.324317337037556
   82.35    32.29113791020086
   82.45    32.25724416921952
   82.55    32.22263657897706
   82.65   32.187316241968226
   82.75      32.151284833788
   82.85    32.11454474853559
   82.95    32.07709905864895
   83.05    32.03895149199534
   83.15    32.00010640998217
   83.25   31.960568789085325
   83.35   31.920344181146714
   83.45    31.87943870105392
   83.55   31.837859013671675
   83.65   31.795612328930833
   83.75    31.75270640528824
   83.85     31.7091495498239
   83.95   31.664950623235217
   84.05   31.620119041594624
   84.15   31.574664696753903
   84.25    31.52859743661952
   84.35   31.481927528315673
   84.45      31.434665718847
   84.55   31.386823312568197
   84.65   31.338412264198535
   84.75   31.289445260286673
   84.85    31.23993577096328
   84.95   31.189897965654552
   85.05   31.139345148286388
   85.15   31.088281594275333
   85.25   31.036720738121897
   85.35   30.984677738640997
   85.45   30.932169766855946
   85.55   30.879216302527922
   85.65   30.825838922292306
   85.75   30.772060734461927
   85.85   30.717903798699993
   85.95    30.66336108087519
   86.05    30.60827518113516
   86.15   30.552825535312966
   86.25   30.497054978005174
   86.35   30.441012316497627
   86.45   30.384752529279613
   86.55    30.32832731096889
   86.65    30.27177834798745
   86.75    30.21509908530544
   86.85   30.157752444461167
   86.95    30.09697706040094
   87.05    30.03900917838197
   87.15   29.981349029932467
   87.25   29.924124961333387
   87.35     29.8674711793483
   87.45    29.81134650511062
   87.55    29.75558228502898
   87.65   29.699285012837077
   87.75   29.632428890609958
   87.85   29.582453521065222
   87.95    29.51088022200456
   88.05   29.461178757717025
   88.15   29.413584179296283
   88.25    29.36825677750821
   88.35   29.321956422423277
   88.45    29.27227783722833
   88.55    29.20549122841444
   88.65   29.183566852297027
   88.75    29.14137513228629
   88.85    29.13559470834452
   88.95    29.09714670724477
   89.05   29.079310629473348
   89.15   29.064950338771286
   89.25    29.05765618579252
   89.35   29.056915280376188
   89.45   29.075324763317603
   89.55    29.04826884157864
   89.65    29.06716089828709
   89.75   29.077389094689675
   89.85    29.10663885719311
   89.95   29.122319868751546
   90.05    29.14054097569135
   90.15   29.161148500252807
   90.25   29.187374711220635
   90.35   29.221602613752637
   90.45    29.27752545972019
   90.55   29.305520904664295
   90.65   29.334078563844837
   90.75     29.3636518741066
   90.85     29.3932300410551
   90.95   29.423520175781093
   91.05    29.45437680480907
   91.15    29.48566003136924
   91.25    29.51705574556747
   91.35   29.548124980870128
   91.45    29.57770796315789
   91.55   29.607262112851515
   91.65   29.636742307932213
   91.75    29.66607859371496
   91.85    29.69525358948047
   91.95   29.724211912463616
   92.05   29.752905271583195
   92.15   29.781292280457105
   92.25   29.809347814748573
   92.35   29.837069527170556
   92.45    29.86451576193354
   92.55    29.89166748901261
   92.65   29.918507519128962
   92.75   29.945021832461105
   92.85   29.971196815256203
   92.95    29.99702127158787
   93.05   30.022486049763213
   93.15   30.047583672835483
   93.25   30.072307466568684
   93.35   30.096650347143186
   93.45   30.120601614441778
   93.55   30.144151028661984
   93.65   30.167288710623072
   93.75     30.1900049710019
   93.85   30.212290284811324
   93.95    30.23413515948319
   94.05   30.255530022732913
   94.15   30.276465130377296
   94.25    30.29693052114722
   94.35   30.316916036325274
   94.45    30.33641150918278
   94.55   30.355406740063295
   94.65   30.373891477360978
   94.75    30.39185540826344
   94.85   30.409288151696583
   94.95     30.4261792591715
   95.05   30.442518222561432
   95.15   30.458294487798803
   95.25   30.473497472029678
   95.35    30.48811658083156
   95.45   30.502141216577797
   95.55   30.515560789297165
   95.65   30.528364729764448
   95.75   30.540542504350917
   95.85   30.552083631560194
   95.95   30.562977699873322
   96.05   30.573214386384702
   96.15   30.582783475961335
   96.25   30.591674880793462
   96.35     30.5998786603889
   96.45   30.607385042537178
   96.55   30.614184445173958
   96.65   30.620267499091636
   96.75    30.62562507146766
   96.85    30.63024829018572
   96.95    30.63412856540933
   97.05   30.637257612033686
   97.15   30.639627473116473
   97.25     30.6412305443877
   97.35    30.64205959992537
   97.45    30.64210781904151
   97.55   30.641368814409482
   97.65    30.63983666144801
   97.75   30.637505928956973
   97.85   30.634371646115248
   97.95     30.6304293368646
   98.05    30.62567505672053
   98.15   30.620105431867767
   98.25     30.6137177003521
   98.35    30.60650975509414
   98.45     30.5984801884117
   98.55    30.58962833770358
   98.65    30.57995433189962
   98.75   30.569457948437528
   98.85   30.558139870972518
   98.95   30.546001756423827
   99.05   30.533046300413886
   99.15   30.519277300354474
   99.25   30.504699714656354
   99.35     30.4893197173999
   99.45   30.473144747871864
   99.55   30.456183554104825
   99.65   30.438424417555055
   99.75     30.4198791321485
   99.85   30.400561210890316
   99.95     30.3804858933039
  100.05   30.359670141503436
  100.15   30.338132609953973
  100.25   30.315893604979905
  100.35    30.29297503498255
  100.45    30.26940034591565
  100.55   30.244794823391064
  100.65    30.21958914492631
  100.75   30.193815611388104
  100.85   30.167507627971588
  100.95    30.14069956192094
  101.05   30.113426314471123
  101.15   30.085723193806295
  101.25   30.057625801741647
  101.35   30.029169811881225
  101.45    29.99307419549562
  101.55    29.96407319913394
  101.65   29.934884870759504
  101.75   29.905543006619162
  101.85   29.876080530731073
  101.95    29.84652407316261
  102.05     29.8168996563938
  102.15   29.787232918655906
  102.25   29.757547008802916
  102.35    29.73560379219961
  102.45   29.699007188150226
  102.55    29.67019248825762
  102.65   29.641436228553477
  102.75   29.612756126834036
  102.85   29.584068072021207
  102.95    29.55539648397875
  103.05   29.526770505780444
  103.15    29.49817972388435
  103.25   29.469649125655206
  103.35   29.448536118996774
  103.45   29.420196204988525
  103.55    29.39197045917312
  103.65    29.36392873739083
  103.75   29.334172749285397
  103.85   29.304789907120867
  103.95     29.2758969612802
  104.05   29.246770466051867
  104.15   29.218106757766115
  104.25   29.190228406559143
  104.35    29.16301419315151
  104.45    29.13631448485987
  104.55    29.11100747558782
  104.65   29.049760031909745
  104.75    29.02812722428076
  104.85   29.008734717790123
  104.95   28.975677136728457
  105.05   28.955885364810243
  105.15    28.94228243056651
  105.25   28.934050641428957
  105.35     28.9154874808466
  105.45   28.913706432291974
  105.55   28.955336501948278
  105.65   28.925666985348503
  105.75    28.93881514844322
  105.85   28.970692606206505
  105.95   28.982573831653635
  106.05   29.006653996027158
  106.15   29.036096463448473
  106.25    29.08621565063254
  106.35    29.10457536065617
  106.45   29.151359027929793
  106.55   29.240427155495492
  106.65    29.27962741082408
  106.75   29.331475108648192
  106.85    29.41375310689288
  106.95   29.479379422682353
  107.05    29.54741100162972
  107.15    29.61351369216255
  107.25    29.71342314150913
  107.35   29.803043289538444
  107.45    29.89542321951813
  107.55    30.02321104643269
  107.65   30.134940835188193
  107.75    30.24840456310143
  107.85    30.39271809158109
  107.95   30.529808306580378
  108.05   30.679789565698076
  108.15    30.82635145443401
  108.25   30.977431687795583
  108.35   31.153620639774072
  108.45   31.309344043953462
  108.55     31.5005540087746
  108.65    31.69065977472338
  108.75    31.87205466788702
  108.85     32.0705730550992
  108.95    32.27225707646786
  109.05    32.48214108409629
  109.15    32.68924061458831
  109.25     32.8828414472742
  109.35    33.09029566445191
  109.45    33.28599074230508
  109.55    33.48124544425365
  109.65    33.67601683652671
  109.75   33.870661163473855
  109.85   34.064158869685855
  109.95    34.25622549387111
  110.05    34.44630818817913
  110.15   34.634430270018775
  110.25    34.82119020849006
  110.35   35.005716250197416
  110.45    35.18851462824559
  110.55    35.36947739046232
  110.65   35.548496142345115
  110.75   35.725441017519614
  110.85   35.900233869683355
  110.95    36.07280948495459
  111.05    36.24312982074549
  111.15    36.41115372129492
  111.25    36.57680598488184
  111.35   36.740056324063694
  111.45   36.900845186941666
  111.55    37.05911702152142
  111.65    37.21482040095618
  111.75    37.36790926079362
  111.85   37.518340246284765
  111.95   37.666072110301506
  112.05    37.81106435960169
  112.15    37.95327749657019
  112.25    38.09267492795037
  112.35    38.22922063682627
  112.45    38.36288085044308
  112.55   38.493623910285606
  112.65   38.621420133110746
  112.75    38.74624160398824
  112.85     38.8680621079552
  112.95    38.98685709172409
  113.05    39.10260369497768
  113.15    39.21528076704852
  113.25    39.32486877901771
  113.35    39.43134985839911
  113.45   39.534707731055065
  113.55   39.634927667332526
  113.65    39.73199643289138
  113.75    39.82590224782538
  113.85    39.91663474670668
  113.95    40.00418493793667
  114.05    40.08854515871249
  114.15    40.16970902636801
  114.25   40.247671391708764
  114.35   40.322428287787666
  114.45    40.39397687918002
  114.55    40.46231541159214
  114.65    40.52744316162141
  114.75   40.589360386303184
  114.85    40.64806827247961
  114.95    40.70356888612199
  115.05    40.75586512194201
  115.15    40.80496065359773
  115.25    40.85085988450709
  115.35    40.89356789964105
  115.45    40.93309041840295
  115.55    40.96943374871488
  115.65   41.002604742447915
  115.75    41.03261075235737
  115.85    41.05945959068728
  115.95     41.0831594896054
  116.05    41.10371906361542
  116.15    41.12114727407969
  116.25    41.13545339598654
  116.35   41.146646987078064
  116.45    41.15473785944882
  116.55    41.15973605371969
  116.65   41.161651815883744
  116.75    41.16049557691149
  116.85    41.15627793519191
  116.95    41.14900964187282
  117.05    41.13870158915169
  117.15    41.12536480155526
  117.25    41.10901043023519
  117.35    41.08964975029576
  117.45    41.06729416116201
  117.55    41.04195518998888
  117.65   41.013644498108384
  117.75   40.982373890474705
  117.85    40.94815532803987
  117.95    40.91100094297731
  118.05    40.87092305666553
  118.15    40.82793420035086
  118.25    40.78204713842587
  118.35    40.73327489428602
  118.45    40.68163077874213
  118.55    40.62712842103186
  118.65    40.56978180181974
  118.75   40.509605287765375
  118.85   40.446613667435614
  118.95    40.38082218853268
  119.05    40.31224659660605
  119.15    40.24090317559688
  119.25   40.166808790754395
  119.35    40.08998093430725
  119.45    40.01043777505251
  119.55      39.928198199498
  119.65   39.843281848120995
  119.75   39.755709150383865
  119.85   39.665501362160256
  119.95     39.5726806091725
  120.05    39.47726993993723
  120.15   39.379293391488204
  120.25    39.27877606666631
  120.35    39.17574423444328
  120.45    39.07022519911308
  120.55   38.962247238986976
  120.65    38.85183961567458
  120.75   38.739032653999274
  120.85    38.62385789156143
  120.95   38.506348295921114
  121.05   38.386538546470724
  121.15   38.264465326949555
  121.25    38.14016777522503
  121.35    38.01368316160023
  121.45   37.885048244594095
  121.55    37.75430064294336
  121.65    37.62148020794222
  121.75    37.48663038022632
  121.85    37.34979951526913
  121.95    37.21104216203727
  122.05    37.07041993219514
  122.15    36.92800335385806
  122.25    36.78378233921754
  122.35   36.637773422904075
  122.45     36.4900200164215
  122.55   36.340592433407906
  122.65   36.189587685497735
  122.75   36.037129050479976
  122.85    35.88336541645759
  122.95   35.728471798662554
  123.05    35.57264422925862
  123.15    35.41439603715813
  123.25    35.25426658401182
  123.35    35.09279961168357
  123.45   34.930540290620634
  123.55    34.76803226333387
  123.65     34.6058147034617
  123.75    34.44441941070838
  123.85    34.28436644592135
  123.95    34.12616811709423
  124.05   33.938048532293095
  124.15    33.75830541651681
  124.25   33.587038401631986
  124.35    33.42431831124945
  124.45    33.27018708648294
  124.55    33.12465786842996
  124.65     32.9877152365353
  124.75    32.85931612781097
  124.85   32.739386353846115
  124.95    32.66189962152018

loop_
_pd_meas_2theta
_pd_meas_intensity_plus
_pd_meas_intensity_plus_sigma
_pd_meas_intensity_minus
_pd_meas_intensity_minus_sigma
    3.05    59.8796   0.8044    60.0437   0.8055
    3.15    57.9406   0.7911    58.2577   0.7946
    3.25    54.9928   0.6295     54.159   0.6245
    3.35    53.1914   0.7594    53.2305   0.7594
    3.45    51.6763   0.7475    50.4649   0.7378
    3.55    49.5804   0.7333    48.6362   0.7253
    3.65    47.5291   0.7185    48.9102   0.7276
    3.75    46.7034   0.7116    46.8791   0.7118
    3.85    46.9212   0.7138    45.6781   0.7039
    3.95    44.6719   0.6964    44.5681   0.6938
    4.05    43.0305   0.6833    44.4188   0.6929
    4.15    43.4128   0.6864    42.8447   0.6809
    4.25    42.1246   0.6757    42.7834     0.68
    4.35    41.4163   0.6716    40.7376   0.6647
    4.45    39.7691   0.6574    40.2542   0.6601
    4.55    38.3368   0.6455    38.4227   0.6454
    4.65    39.6364   0.6577    38.6207   0.6466
    4.75    37.0885   0.6346    37.0555    0.633
    4.85     38.055   0.6435    37.3497   0.6357
    4.95    36.1103   0.6263    35.0907   0.6159
    5.05    35.6336   0.6227     35.801   0.6227
    5.15    35.9781   0.6258    35.2707   0.6179
    5.25    33.9193   0.6068    33.3375   0.6002
    5.35    34.6576   0.6138    33.0334   0.5979
    5.45    32.9715   0.5985    33.5213   0.6021
    5.55    33.5622   0.6036    32.4842   0.5927
    5.65    33.8854    0.429    34.5938   0.4331
    5.75     33.147   0.4238    33.9002   0.4287
    5.85    33.0279   0.4234    33.0354   0.4232
    5.95    32.6321   0.4211    32.8861   0.4223
    6.05    31.5412   0.4139    32.2249   0.4178
    6.15    31.5688   0.4141    30.9359   0.4093
    6.25    30.8216   0.4092    30.6916   0.4078
    6.35    30.1504   0.4048    30.6351   0.4076
    6.45    30.3533   0.4062    30.4337   0.4063
    6.55     29.328   0.3994     29.674   0.4013
    6.65    29.1787   0.3983    28.9048   0.3957
    6.75    28.9091   0.3962    29.4168    0.399
    6.85    28.3114   0.3923    28.0958   0.3902
    6.95    28.1288   0.3911     27.766   0.3881
    7.05    27.7084   0.3885    27.4241   0.3858
    7.15    26.4673   0.3793    26.6549   0.3802
    7.25    26.8895   0.3828    26.9992   0.3826
    7.35    26.6891    0.381    26.9723   0.3823
    7.45    26.3376   0.3786    26.3631   0.3779
    7.55     26.516   0.3798    26.2921   0.3775
    7.65    25.6925   0.3739    25.6502   0.3727
    7.75    24.8983   0.3679    26.0307   0.3754
    7.85    25.2357   0.3706    24.9194   0.3676
    7.95    25.6641   0.3737    24.9942    0.368
    8.05    24.7854   0.3668    24.9212   0.3674
    8.15    25.3941   0.3716    24.6965   0.3656
    8.25     25.284   0.3317      25.16   0.3305
    8.35    25.5567   0.3048    25.3227   0.3031
    8.45    25.3737   0.3034    24.9126   0.3007
    8.55    25.4524   0.3042    25.2321   0.3025
    8.65    24.3858   0.2977    24.2776   0.2968
    8.75    24.9434   0.3009    24.4113   0.2973
    8.85    24.6948   0.2996    24.7635   0.2996
    8.95    24.4162    0.298    24.0833   0.2956
    9.05    25.6196   0.3747    24.5189   0.3661
    9.15    24.4288   0.3658    25.4567   0.3731
    9.25    24.1083   0.3634    25.1125   0.3703
    9.35    24.2962   0.3648    24.4207    0.365
    9.45    24.5224   0.3665    24.1737   0.3633
    9.55    24.2643   0.3646    24.1887   0.3636
    9.65    24.4076   0.3658    24.5696   0.3665
    9.75    23.7768   0.3611    24.5646   0.3664
    9.85     23.705   0.3605    23.4385   0.3579
    9.95    24.1185   0.3638    23.5045   0.3584
   10.05    23.6363   0.3599    23.3544   0.3571
   10.15    23.0635   0.3556    23.4323   0.3576
   10.25    23.3141   0.3576    22.6253   0.3513
   10.35    23.5777   0.3596    23.9507   0.3616
   10.45    23.1878   0.3566    23.1259   0.3554
   10.55    23.2778   0.3571    22.5813   0.3511
   10.65    23.8011   0.3611    23.6334    0.359
   10.75     23.471   0.3585     23.833   0.3608
   10.85    22.9828   0.3548    23.3114   0.3566
   10.95    23.9683   0.3623    23.4324   0.3576
   11.05    23.5537   0.2925    24.1758   0.2961
   11.15    23.5955   0.2928    23.4772    0.292
   11.25    23.3257   0.2911    23.5035   0.2919
   11.35     23.214   0.2905    23.2976   0.2907
   11.45    23.3409   0.2912    23.1828   0.2899
   11.55    23.4095   0.2916    23.2608   0.2904
   11.65    23.1895   0.3183    24.1349   0.3244
   11.75    24.3087   0.3645    24.0314   0.3619
   11.85    23.7065   0.3599    23.3794   0.3572
   11.95    24.3781   0.3652    23.6741   0.3594
   12.05      23.74     0.36    22.9712   0.3535
   12.15    23.6085   0.3593    22.7025   0.3519
   12.25    23.3723   0.3575    23.8284   0.3605
   12.35    23.4516   0.3582    22.7223    0.352
   12.45    23.7444   0.3607     23.154   0.3555
   12.55    23.3123   0.3569    22.8665   0.3529
   12.65     22.648   0.3523    23.6768   0.3595
   12.75    23.5263   0.3588    22.3838   0.3492
   12.85    23.0696   0.3553    22.5724   0.3506
   12.95    23.3047   0.3574     22.703   0.3518
   13.05    22.5476   0.3508    22.8393   0.3525
   13.15    22.6211   0.3521    23.0163   0.3543
   13.25    22.4302   0.3503    22.7732   0.3523
   13.35    21.8498   0.3456    22.3531   0.3489
   13.45    22.1651   0.3482    22.7432    0.352
   13.55    22.0527    0.347    21.4484   0.3414
   13.65     22.217   0.3485    22.0476   0.3467
   13.75    21.7702   0.3068    21.8092   0.3068
   13.85    21.8146   0.2795     21.207   0.2753
   13.95    21.3255   0.2763    21.7615   0.2791
   14.05    21.2839   0.2759    21.6622   0.2781
   14.15    21.3895   0.2769    21.3068   0.2761
   14.25    21.6132   0.2781     21.443   0.2767
   14.35    20.8817   0.3333     21.036   0.3341
   14.45    20.9537   0.3342    21.5508   0.3384
   14.55    20.9973   0.3341    20.9287   0.3331
   14.65    20.6791   0.3317    20.8674   0.3331
   14.75    20.5822    0.331    20.6146   0.3304
   14.85    20.3254   0.3288    20.6257   0.3307
   14.95    20.3901   0.3295    20.3732    0.329
   15.05    19.7592   0.3241    20.4419   0.3292
   15.15    19.9036   0.3259    20.5191   0.3303
   15.25    21.2421   0.3363    20.0635   0.3262
   15.35    20.0214   0.3264    20.0007    0.326
   15.45    20.7219   0.3325     20.154    0.327
   15.55    20.1254   0.3272    20.1342   0.3267
   15.65    20.1626   0.3279    19.5033   0.3216
   15.75    19.8916   0.3254    20.0182   0.3257
   15.85     20.024   0.3266    19.8472   0.3245
   15.95    19.9289    0.326    19.6539    0.323
   16.05     19.638   0.3232    19.6601   0.3226
   16.15    20.4266   0.3297    19.4547   0.3214
   16.25    20.0278   0.3265    19.1385   0.3185
   16.35    19.9238   0.3254    20.0513   0.3259
   16.45    19.9474   0.2939    20.0811   0.2946
   16.55     20.283   0.2719    20.0892   0.2704
   16.65    20.0041   0.2701    20.4188   0.2728
   16.75    20.2193   0.2716    20.7352   0.2748
   16.85    20.4077   0.2729    20.3734   0.2723
   16.95    19.8611   0.2693     20.106   0.2705
   17.05     19.696   0.2939    20.0128    0.296
   17.15    20.1649   0.3335    20.2759    0.334
   17.25     20.668   0.3374    20.0654    0.332
   17.35    20.0649   0.3325    19.9356   0.3313
   17.45    20.0608   0.3325    19.6463   0.3284
   17.55    19.9196   0.3311    19.2159   0.3246
   17.65    19.9849   0.3319      19.47   0.3271
   17.75    19.3435   0.3264    19.0584   0.3236
   17.85    19.4017   0.3273    18.6385   0.3202
   17.95    18.9995   0.3238    19.4806   0.3272
   18.05    18.9251    0.323    18.5345   0.3191
   18.15    18.9564   0.3236    18.7336   0.3209
   18.25    18.6605   0.3207    19.6804   0.3287
   18.35    18.9513   0.3233    18.7386   0.3208
   18.45    19.0957   0.3246    19.1672   0.3244
   18.55    18.5046   0.3193    19.0251   0.3232
   18.65     19.044   0.3243    19.1479   0.3244
   18.75    18.6593   0.3207     18.651     0.32
   18.85    18.6411   0.3204    19.0519   0.3234
   18.95      18.69    0.321    19.7044   0.3289
   19.05    19.6678    0.329    19.3303   0.3255
   19.15    19.7023   0.2716    19.9191   0.2728
   19.25    20.3453   0.2757     20.568   0.2772
   19.35    20.0905   0.2741    20.3735   0.2758
   19.45    20.1981    0.275    19.9765   0.2733
   19.55     19.917   0.2729    20.2932   0.2751
   19.65    19.7032   0.2715    19.1464   0.2673
   19.75    19.7711    0.272    18.9283   0.2659
   19.85    20.1621   0.3433    19.9553   0.3411
   19.95    19.9938   0.3419    19.7146   0.3392
   20.05    19.6985   0.3394    20.0157   0.3418
   20.15     19.631   0.3388     20.074    0.342
   20.25    19.8886   0.3408    20.0187   0.3414
   20.35    20.4376   0.3457    20.5293   0.3459
   20.45    20.8135   0.3489    20.2757    0.344
   20.55    20.6616   0.3479    20.9608   0.3498
   20.65    20.6591   0.3476    20.4099    0.345
   20.75    20.4106   0.3458    20.2755   0.3438
   20.85    19.2647   0.3357    19.7295   0.3391
   20.95     19.721   0.3398    19.6575   0.3384
   21.05    19.4527   0.3374    18.5444   0.3287
   21.15    18.8428   0.3321    18.8435   0.3313
   21.25    19.2399   0.3354    19.3683   0.3358
   21.35    18.8763   0.3324    19.2899   0.3354
   21.45    19.1737    0.335    19.2882   0.3353
   21.55    18.7617    0.331    18.6197   0.3293
   21.65    19.2716   0.3357    18.3709    0.327
   21.75    18.9988   0.3332    18.9871   0.3324
   21.85    19.1261   0.2758    19.1821    0.276
   21.95    19.3313   0.2772    19.0664   0.2753
   22.05    19.0867   0.2755    19.7176   0.2797
   22.15    19.9787   0.2819    19.9524   0.2815
   22.25    20.2398   0.2837    20.1391   0.2826
   22.35    19.8357   0.2808    19.9709   0.2814
   22.45    20.0671   0.2827    19.9984   0.2818
   22.55    20.0601   0.3485    19.9871   0.3474
   22.65    20.0617   0.3482    19.7635   0.3453
   22.75     19.775   0.3459    19.8139    0.346
   22.85    19.7028   0.3452    20.1027   0.3479
   22.95    20.0616   0.3483    19.6171   0.3439
   23.05    19.8251   0.3464    19.3553   0.3418
   23.15    19.6063   0.3443    19.1049   0.3394
   23.25    18.2842    0.333     19.362   0.3421
   23.35    18.3424   0.3331    18.9772   0.3382
   23.45    18.3723   0.3337    18.8398   0.3373
   23.55    18.8587   0.3379    18.9052   0.3376
   23.65    19.0714   0.3397    19.3092   0.3411
   23.75    18.7798   0.3375    19.5156   0.3431
   23.85    18.4311   0.3338    18.9594    0.338
   23.95    18.9586   0.3389    18.4041   0.3331
   24.05    18.9407   0.3387    18.7582   0.3364
   24.15    18.9519   0.3386    18.6118   0.3348
   24.25    18.3343   0.3329    18.8652   0.3374
   24.35    19.2193   0.3409      18.61   0.3347
   24.45    18.6174   0.3355    18.7119   0.3358
   24.55    18.7251   0.2988    18.7554   0.2988
   24.65    19.0502   0.2738    18.9456   0.2729
   24.75    18.3778    0.269    18.4467   0.2694
   24.85    18.6177   0.2706    18.5291   0.2697
   24.95    19.0337   0.2738    18.5756   0.2702
   25.05    18.7259   0.2715    18.8744   0.2722
   25.15    18.5448   0.2964    18.5844   0.2964
   25.25    18.1774    0.329    18.0572   0.3274
   25.35    18.4292   0.3308    18.0216   0.3267
   25.45    18.8829   0.3351     17.896   0.3261
   25.55    17.9888   0.3271    18.2269   0.3284
   25.65    18.1447   0.3284    18.2828   0.3291
   25.75    17.9443   0.3267    18.3869   0.3304
   25.85    17.9616   0.3266    17.8165   0.3249
   25.95    18.1669   0.3291    17.7761   0.3249
   26.05    17.3552   0.3213    18.1441   0.3279
   26.15    17.8741    0.326     18.524   0.3316
   26.25    17.9766   0.3274    18.1599   0.3281
   26.35     17.677   0.3241    18.1965   0.3283
   26.45    17.7535   0.3253    17.6611   0.3235
   26.55    17.7164   0.3246    17.7127   0.3238
   26.65    17.8027   0.3255    18.0896   0.3275
   26.75      17.87   0.3263    18.3346   0.3298
   26.85    18.1862   0.3287    17.0746   0.3178
   26.95    17.5788   0.3233     18.243   0.3289
   27.05    18.5114   0.3318    17.7234    0.324
   27.15    18.2454   0.3292    18.1649   0.3279
   27.25    18.6529   0.2691    18.3362   0.2665
   27.35    18.6409   0.2687    18.9274   0.2707
   27.45    18.9098   0.2709     18.795   0.2698
   27.55    19.0624   0.2719    19.5108   0.2749
   27.65    20.1031   0.2792    19.7312   0.2762
   27.75    20.5192   0.2822    19.7876   0.2767
   27.85    21.9627   0.3176    21.3931   0.3131
   27.95    23.0435   0.3604    23.7854   0.3657
   28.05    23.8733   0.3668    23.5388   0.3639
   28.15    23.7655   0.3661    23.5036   0.3636
   28.25    23.2023   0.3616    22.7953   0.3578
   28.35     22.439   0.3555    22.1381   0.3525
   28.45    21.5063   0.3482     21.735   0.3495
   28.55    23.2275   0.3619    23.8099    0.366
   28.65    26.6951   0.3883    27.3418   0.3922
   28.75    36.9118   0.4562    36.0234     0.45
   28.85    53.3177   0.5488    52.9455   0.5455
   28.95    80.6011   0.6741    80.2708   0.6716
   29.05   112.1395   0.7955   107.2224   0.7759
   29.15   130.3679   0.8576    127.557   0.8466
   29.25   123.7527   0.8355   123.4084   0.8325
   29.35    94.9771   0.7317    94.2839   0.7274
   29.45    63.3996   0.5981    63.2758   0.5964
   29.55    40.7255   0.4794      40.93   0.4795
   29.65    31.2987   0.4197    31.1385   0.4181
   29.75     26.588   0.3871    25.7009   0.3798
   29.85     24.657   0.3727    24.8244   0.3732
   29.95    23.5001   0.3245    23.5596   0.3246
   30.05    23.0744    0.293    22.1079   0.2867
   30.15    21.4476   0.2825    20.8599   0.2785
   30.25    20.3761   0.2754    21.0586   0.2797
   30.35    20.1005   0.2736    20.1954   0.2739
   30.45     19.922   0.2722    19.6769   0.2702
   30.55    20.4704   0.2762    20.1751   0.2738
   30.65    21.2576    0.344    21.3113    0.344
   30.75    23.0427   0.3577    23.3726   0.3598
   30.85    23.7954   0.3637    24.5128    0.369
   30.95     25.168   0.3741    24.7137   0.3698
   31.05    24.6809   0.3703    25.1818   0.3734
   31.15    24.0124   0.3655    24.1166   0.3659
   31.25    21.7714   0.3476    22.2215   0.3508
   31.35    20.5892   0.3387    20.2722   0.3355
   31.45    18.9395   0.3246    19.7991   0.3312
   31.55    19.4008   0.3284    18.9214    0.324
   31.65    19.1975   0.3271    19.4884   0.3287
   31.75      19.56   0.3297    19.1209   0.3253
   31.85    19.3945   0.3287    18.5661   0.3207
   31.95    18.8091   0.3234    18.5961   0.3208
   32.05    18.3846   0.3198     18.486   0.3201
   32.15    17.6309   0.3133    17.9615   0.3156
   32.25     18.124   0.3173    18.1026   0.3164
   32.35    17.5291   0.3121    18.0255   0.3161
   32.45    18.3568   0.3195    18.1749   0.3172
   32.55    19.0729   0.3254    19.2121   0.3261
   32.65    20.7462   0.2784    20.2389   0.2747
   32.75    20.5644   0.2768    20.0046    0.273
   32.85    19.2938   0.2684    19.4979   0.2695
   32.95    19.3546   0.2688    19.4453   0.2692
   33.05    19.2922   0.2683    19.3886   0.2686
   33.15    20.1595   0.2744    20.9475   0.2793
   33.25    23.0229   0.3212    22.7277   0.3188
   33.35    27.7292   0.3944    28.5621   0.3998
   33.45    39.8014   0.4725    39.3356   0.4692
   33.55    58.5669   0.5733    59.4981   0.5772
   33.65     85.575   0.6928    86.2802   0.6945
   33.75   111.9635   0.7921   114.7375   0.8005
   33.85   124.5466   0.8359   124.4203   0.8342
   33.95   109.0087   0.7821   110.4497   0.7863
   34.05    79.5243   0.6686    79.8149   0.6686
   34.15    50.6495   0.5331    50.2363   0.5302
   34.25    34.3808   0.4397    35.3881   0.4449
   34.35    27.0346   0.3895    25.9529    0.381
   34.45    23.1445   0.3605    23.0401   0.3588
   34.55    21.6676   0.3488    21.6559    0.348
   34.65     21.885   0.3505    21.7676   0.3488
   34.75    21.0741   0.3439    22.0512   0.3509
   34.85    20.5871     0.34    21.2824   0.3451
   34.95      20.03   0.3354    20.1551   0.3357
   35.05    19.1212   0.3273    19.0267   0.3261
   35.15    18.7648   0.3244    18.5696    0.322
   35.25    18.1385   0.3189    17.9266   0.3164
   35.35    18.5296   0.2662    18.3121   0.2643
   35.45    17.8749   0.2613    18.5331   0.2661
   35.55    18.5949   0.2666    18.5713   0.2662
   35.65     18.225    0.264    17.9799    0.262
   35.75    17.8612   0.2613    18.6412   0.2666
   35.85     17.408   0.2579    18.0072    0.262
   35.95     18.259   0.2644    17.9514   0.2618
   36.05     18.601   0.3305    18.4037   0.3283
   36.15    18.4806   0.3292    18.7726   0.3314
   36.25    18.3423   0.3281     18.903   0.3328
   36.35    18.6893   0.3311    18.5882   0.3295
   36.45    18.0693   0.3256    18.4729   0.3287
   36.55    18.0735   0.3258    18.1714   0.3262
   36.65    18.2612   0.3273    18.1924   0.3262
   36.75    18.0591   0.3259    17.8724   0.3237
   36.85    18.3435    0.328    18.1095   0.3254
   36.95    18.4972   0.3298    18.3565   0.3279
   37.05    18.6569    0.331    18.8292   0.3318
   37.15    18.8397   0.3326    18.5078   0.3289
   37.25    18.3046   0.3281    18.4796   0.3288
   37.35    18.7755   0.3319    18.6009   0.3297
   37.45    18.6894   0.3314    18.5772   0.3296
   37.55    19.2651   0.3364    19.2781   0.3359
   37.65    19.0876   0.3347     18.801   0.3314
   37.75    18.9393   0.3332    18.2055   0.3264
   37.85    18.7951    0.332    19.1904   0.3348
   37.95    18.5948    0.302    18.5093    0.301
   38.05    19.0381   0.2835    18.7561   0.2811
   38.15    18.6811   0.2804    19.0089   0.2829
   38.25     18.739   0.2813    19.0432   0.2832
   38.35    18.7857   0.2815    19.1017   0.2836
   38.45    18.9621   0.2827     18.945   0.2822
   38.55    19.2671   0.2852    19.0575   0.2832
   38.65    19.0446   0.3141     19.553   0.3179
   38.75    19.0858   0.3578      19.12   0.3577
   38.85    19.3801   0.3604    18.8813   0.3555
   38.95    19.4895   0.3615    19.7034    0.363
   39.05    19.4037   0.3607    19.1976    0.358
   39.15    19.6419   0.3629    19.3875     0.36
   39.25    19.3039   0.3598    19.2387   0.3588
   39.35    19.6888   0.3635    19.6588   0.3627
   39.45    19.1023   0.3581    18.8496   0.3551
   39.55     18.536   0.3527    19.7972   0.3639
   39.65     19.036   0.3576    18.6538   0.3532
   39.75    18.9275   0.3563    18.6052   0.3526
   39.85    19.4285   0.3611    19.0119   0.3564
   39.95    19.2126   0.3592    19.1815   0.3579
   40.05    19.6939   0.3636    18.9337   0.3557
   40.15    19.2034    0.359    18.2293   0.3491
   40.25    19.1045    0.358    19.0347   0.3567
   40.35    19.4734   0.3614    19.0248   0.3564
   40.45     19.758   0.3639    19.5149   0.3612
   40.55    18.8101   0.3551    19.5678   0.3615
   40.65    19.4937   0.3615    19.6378   0.3622
   40.75    18.9374   0.2838    18.0394   0.2768
   40.85    18.9915   0.2842    18.8947   0.2835
   40.95    18.7129   0.2822    18.5436   0.2806
   41.05    18.3151   0.2792     18.965   0.2839
   41.15    18.7462   0.2824    18.9453   0.2836
   41.25    18.2322   0.2785    18.7048   0.2818
   41.35    18.8905   0.3127    18.9526   0.3129
   41.45     19.455   0.3581     19.011   0.3535
   41.55    18.9028   0.3529    19.4844    0.358
   41.65    20.7092   0.3696    19.7344   0.3603
   41.75    19.6496   0.3597    20.4418   0.3661
   41.85    21.1844   0.3737    21.2368   0.3737
   41.95    20.6907   0.3693    20.8398   0.3701
   42.05    20.6764   0.3693     20.801   0.3698
   42.15    19.9327   0.3629    20.9317   0.3712
   42.25    19.8134   0.3613    19.9707   0.3621
   42.35    19.7077   0.3608    19.8663   0.3616
   42.45    18.9228   0.3533    19.7904   0.3605
   42.55    18.9492   0.3535    19.1124   0.3542
   42.65    18.6544   0.3511    18.8612   0.3521
   42.75     17.965   0.3438    18.9741   0.3528
   42.85    18.9286   0.3536    18.0766   0.3448
   42.95    18.8838   0.3529     18.567   0.3493
   43.05    18.4428   0.3486    18.9845   0.3531
   43.15    18.0528    0.345    18.1509   0.3453
   43.25    18.6358   0.3502    18.0804   0.3442
   43.35    18.0351   0.3059    17.5654   0.3016
   43.45    18.1863    0.279    18.4517   0.2807
   43.55    18.5735   0.2816    18.0512   0.2776
   43.65    18.4615   0.2811    17.5659    0.274
   43.75    18.3277   0.2799    18.6046   0.2817
   43.85     18.459    0.281    17.7909   0.2755
   43.95     17.869   0.2765    17.9574   0.2769
   44.05    17.8448   0.3269    18.1368   0.3291
   44.15    18.0055   0.3284    18.1352   0.3291
   44.25    18.3453   0.3313    17.3189   0.3217
   44.35    17.6112   0.3246    18.1477   0.3291
   44.45    18.0373   0.3285    17.9578   0.3272
   44.55     18.214   0.3301    18.4083   0.3314
   44.65    17.7628    0.326    17.3332   0.3218
   44.75     18.095   0.3293    18.5384   0.3327
   44.85    18.3447   0.3316    18.1088   0.3289
   44.95    18.1262   0.3295    18.7211   0.3343
   45.05    19.9718   0.3461    19.2587   0.3391
   45.15    19.9175   0.3453    19.8933   0.3445
   45.25    20.9235    0.354    20.3444   0.3483
   45.35    20.9129    0.354     20.644   0.3508
   45.45    21.0052   0.3547    20.7831   0.3521
   45.55    19.9023   0.3453    19.7555   0.3433
   45.65    19.1658   0.3388    19.3224   0.3395
   45.75    18.2853   0.3308    19.0128   0.3366
   45.85    18.4311   0.3321    18.8089    0.335
   45.95    18.2613   0.3306     18.491    0.332
   46.05    17.4714   0.3233    18.2498   0.3299
   46.15    18.0765   0.2667    17.9127   0.2653
   46.25    18.0008   0.2662    17.7419   0.2642
   46.35    17.4202   0.2619     17.503   0.2622
   46.45    17.8675   0.2653    17.7044   0.2638
   46.55    18.0023   0.2662    17.5878   0.2628
   46.65    17.8653   0.2652    17.9819   0.2657
   46.75    18.0001   0.2922    18.5147    0.296
   46.85    18.1253   0.3284    18.2093   0.3286
   46.95    17.9598   0.3268    18.2279    0.329
   47.05    18.4063   0.3311    18.3111   0.3297
   47.15    18.5439   0.3319    18.3443   0.3295
   47.25    18.6986   0.3336    18.9133    0.335
   47.35    18.5744   0.3324    18.6202   0.3324
   47.45    18.6626   0.3333    18.2825   0.3294
   47.55    18.7308   0.3342    18.8039   0.3342
   47.65    18.7636    0.334    18.7132   0.3331
   47.75    19.1837   0.3382    19.0896   0.3367
   47.85     19.319   0.3392     19.872   0.3432
   47.95    20.8601   0.3524    20.3266   0.3471
   48.05    22.4142   0.3656     22.167   0.3626
   48.15    25.3445    0.388    26.2755   0.3945
   48.25    31.7549   0.4352    33.6291   0.4468
   48.35    44.5196   0.5148    45.4844   0.5194
   48.45     66.943    0.631    67.2615   0.6314
   48.55    92.7624    0.743    93.7507   0.7456
   48.65   108.1256   0.8015    108.327   0.8005
   48.75    99.7366   0.7704    99.9276     0.77
   48.85    69.7086   0.5277    70.8083   0.5313
   48.95    45.5842   0.4265    46.1523   0.4291
   49.05    32.7534   0.3617    32.7384   0.3615
   49.15    26.2691   0.3238    26.6583   0.3259
   49.25    22.8653   0.3023    22.3337   0.2984
   49.35    20.0879   0.2832    20.3626   0.2848
   49.45    19.6708    0.342    19.0582   0.3362
   49.55    18.5856   0.3325    18.7957   0.3339
   49.65    19.0105    0.336    18.0728   0.3273
   49.75     18.401   0.3308    18.7437   0.3335
   49.85    18.8298   0.3345    18.4971   0.3308
   49.95    18.4335    0.331    18.5517   0.3315
   50.05     18.313     0.33    17.7597   0.3246
   50.15    18.1883   0.3287     17.592   0.3229
   50.25    17.9291   0.3268    17.3197   0.3207
   50.35    17.8675   0.3258    17.5085    0.322
   50.45    16.8364   0.3167    17.0215   0.3178
   50.55    17.3871   0.3216    17.3963    0.321
   50.65    17.1029   0.3189    16.9771    0.317
   50.75    17.5164   0.3231    17.9125   0.3258
   50.85    17.8596   0.3257    18.0244   0.3266
   50.95    18.0323   0.3276    18.3789     0.33
   51.05    18.5979   0.3326    18.7862   0.3337
   51.15    18.3771   0.3305    18.5648   0.3314
   51.25    19.4454   0.3398    18.9625   0.3353
   51.35     19.959   0.3444     19.397   0.3387
   51.45    19.3675   0.3392    20.2857   0.3466
   51.55    20.2974   0.2838    20.0632   0.2819
   51.65    19.4106   0.2773    19.6703   0.2792
   51.75    18.7903   0.2731    18.9273   0.2738
   51.85    18.9818   0.2744    18.6938    0.272
   51.95    18.1362   0.2682    18.5853   0.2712
   52.05    18.3651   0.2699    17.9669   0.2666
   52.15    17.8783   0.2928    18.1745   0.2948
   52.25    18.6387    0.336     17.712    0.327
   52.35    18.1949   0.3317    17.9062   0.3287
   52.45    18.3237    0.333     18.486   0.3342
   52.55    18.1616   0.3315    18.9476   0.3379
   52.65    18.1634   0.3315    18.4606   0.3337
   52.75     18.022   0.3304    18.5413   0.3346
   52.85    18.8212   0.3374    17.9237   0.3288
   52.95    18.3761   0.3339    18.5049   0.3345
   53.05    17.6598   0.3269    17.7904   0.3275
   53.15    17.6335    0.327    18.4483   0.3338
   53.25    17.2427   0.3232    17.0007   0.3202
   53.35    17.7042   0.3274    17.3337   0.3232
   53.45    16.8398   0.3196     17.327   0.3233
   53.55    16.7807   0.3186    17.5021   0.3248
   53.65    16.7663   0.3187    17.7415   0.3271
   53.75    17.7001   0.3274    17.0753    0.321
   53.85    17.2037   0.3227    17.5889   0.3255
   53.95    17.0351    0.321    16.9351   0.3197
   54.05    16.9821   0.3205    16.8283   0.3184
   54.15    17.3543    0.324     17.652   0.3262
   54.25    18.0697    0.277    18.3222   0.2787
   54.35    18.1225   0.2772    18.6843   0.2815
   54.45    18.5753   0.2809    18.1739   0.2776
   54.55    17.8902   0.2756    18.0692   0.2767
   54.65     18.568   0.2808    17.9626   0.2758
   54.75    18.7025   0.2818    18.3297   0.2786
   54.85    18.9372   0.3122    18.5936    0.309
   54.95    18.8953   0.3512    19.3057   0.3545
   55.05    18.9986   0.3519    19.4759   0.3559
   55.15    19.9328   0.3606    19.9707   0.3607
   55.25    20.5535   0.3661    20.0591   0.3609
   55.35    19.8122   0.3594    19.9172   0.3598
   55.45     20.515   0.3659    19.8871   0.3598
   55.55    19.2887   0.3547     19.176   0.3531
   55.65     19.434   0.3565    18.8247   0.3502
   55.75    18.3303   0.3457    18.6553   0.3482
   55.85    18.6729   0.3493    18.2177   0.3444
   55.95    18.0498   0.3433    17.8172   0.3403
   56.05    17.9078   0.3419    18.0075    0.342
   56.15    18.5103   0.3479    17.7525   0.3398
   56.25    17.7089   0.3398    17.7667   0.3397
   56.35    17.7907   0.3409    17.2371   0.3348
   56.45    17.7722   0.3406    18.3786   0.3458
   56.55    18.0536   0.3432    17.7051    0.339
   56.65    17.9571   0.3421    18.5397   0.3473
   56.75    19.4714   0.3563    18.4434    0.346
   56.85    19.4159   0.3558    19.2211   0.3534
   56.95    18.9691   0.2842     19.229   0.2858
   57.05     19.399   0.2871     18.466   0.2802
   57.15    18.9567   0.2841    19.0423   0.2845
   57.25     19.963   0.2914     20.109   0.2922
   57.35    22.1279   0.3069    21.9155    0.305
   57.45    23.9572   0.3193     24.329   0.3213
   57.55    28.9556   0.3874    28.9113   0.3866
   57.65    35.9657    0.488    36.1908   0.4888
   57.75    40.8863   0.5199    40.8931   0.5195
   57.85    41.6921   0.5253    41.8262   0.5257
   57.95    35.7007    0.486    36.0399   0.4872
   58.05    29.2409   0.4398    29.8257   0.4435
   58.15    25.6448   0.4121    25.1797   0.4078
   58.25    22.0345   0.3818    21.9067   0.3801
   58.35    20.6564   0.3702    21.4562   0.3766
   58.45    20.6191   0.3693    20.1247   0.3643
   58.55    18.8695   0.3537    19.4384   0.3583
   58.65    18.4825   0.3498    18.5755     0.35
   58.75    18.5635   0.3506    18.5245   0.3494
   58.85    19.0097   0.3551    18.4177   0.3486
   58.95    18.6391   0.3511    17.7596   0.3421
   59.05    18.0012   0.3453    18.1851   0.3463
   59.15    18.8169    0.353    18.2479    0.347
   59.25    17.7384   0.3426    18.2505   0.3467
   59.35    18.3486   0.3483     18.253   0.3471
   59.45    18.5882   0.3507    18.1762    0.346
   59.55    18.1485   0.3465    18.0418   0.3449
   59.65    18.9865   0.2859    19.6664   0.2907
   59.75    19.8212   0.2919    19.7375   0.2913
   59.85    21.6475   0.3053    21.7507   0.3057
   59.95    23.7816   0.3199    24.6914   0.3256
   60.05    29.0089   0.3533    29.2325   0.3542
   60.15    38.0419   0.4046     36.406   0.3953
   60.25    49.2579   0.4999    50.6718   0.5064
   60.35    77.7873    0.693    77.2051   0.6894
   60.45   124.2599   0.8752   120.8146   0.8621
   60.55   173.3997   1.0344   172.0214   1.0294
   60.65   196.0854   1.0997   194.8899   1.0941
   60.75   170.8039   1.0264   170.3695   1.0234
   60.85   122.1292   0.8683   117.7685   0.8515
   60.95    75.4154    0.682    74.3363   0.6761
   61.05    49.5881   0.5538     48.902    0.549
   61.15    36.4621   0.4742    36.1614   0.4715
   61.25    29.1029   0.4241    28.8814   0.4217
   61.35    23.9865   0.3848    24.3335   0.3868
   61.45    22.4368   0.3721    21.7871   0.3659
   61.55    21.6566    0.366    21.8089   0.3662
   61.65    21.6701   0.3656    21.3442   0.3621
   61.75    22.1697   0.3701    22.5694   0.3726
   61.85    23.9043   0.3842    23.5602   0.3807
   61.95    24.2766   0.3871    24.8696   0.3908
   62.05    26.8228   0.4066    26.9421   0.4071
   62.15    28.2223   0.4172    28.9072   0.4213
   62.25    29.7993   0.3868    29.5676   0.3848
   62.35    27.9316   0.3441    27.3263     0.34
   62.45    24.6373   0.3227    25.0593   0.3255
   62.55    22.6739   0.3101    22.5894   0.3091
   62.65    20.9328   0.2977     20.921   0.2974
   62.75    19.9577   0.2906    19.9845   0.2905
   62.85    19.3709   0.2865     19.714   0.2887
   62.95    20.0949   0.3209    19.1123   0.3125
   63.05    19.4718   0.3551    19.8059   0.3578
   63.15    20.0853   0.3606    19.0909   0.3513
   63.25    19.2459    0.353    20.1356   0.3605
   63.35    19.2019   0.3526    19.3106   0.3529
   63.45    19.7038   0.3571    19.8752   0.3581
   63.55    19.1833   0.3524    19.6556   0.3564
   63.65    19.5491    0.356    18.9499   0.3499
   63.75    18.7689   0.3488    18.8275   0.3488
   63.85    18.7858   0.3489    18.9091   0.3495
   63.95    18.3224   0.3448    18.2377   0.3432
   64.05    18.5481   0.3466    17.8358   0.3393
   64.15    17.8979   0.3406     18.493   0.3454
   64.25    17.9742   0.3414    17.3927   0.3349
   64.35    18.1994   0.3434    18.1981   0.3427
   64.45    17.8943   0.3406    18.0407   0.3412
   64.55    18.5635   0.3468    18.4118   0.3447
   64.65     18.855   0.3494    18.3893   0.3443
   64.75    18.7802   0.3486    18.9594   0.3498
   64.85    19.4895   0.3552    19.7842   0.3572
   64.95    20.0693   0.3232    19.7511   0.3202
   65.05    19.9487   0.2946    19.7241   0.2927
   65.15    19.6391   0.2922    19.4982   0.2911
   65.25    18.0649   0.2805    18.6287   0.2844
   65.35     18.353   0.2827    18.5588    0.284
   65.45    17.8162   0.2784    17.8945   0.2786
   65.55    17.7132   0.2777    17.5812   0.2763
   65.65    17.9548   0.3082    17.5264   0.3042
   65.75    17.8624   0.3467    17.2458   0.3403
   65.85    18.0314   0.3484    17.6326   0.3444
   65.95     17.162     0.34    17.8453    0.346
   66.05    17.7877   0.3459     17.421   0.3417
   66.15    18.8756   0.3565     17.012    0.338
   66.25    18.0367   0.3483    17.9679   0.3473
   66.35    17.5124   0.3437    17.7382   0.3453
   66.45    18.1382   0.3497    17.6228    0.344
   66.55    17.9298   0.3475    18.0265   0.3479
   66.65    18.2414   0.3509    18.1338    0.349
   66.75    18.8593   0.3564    18.2841   0.3502
   66.85    18.5522   0.3536    17.9778   0.3473
   66.95    17.8491   0.3469    17.4768   0.3424
   67.05    18.0927    0.349    17.3768   0.3414
   67.15    17.7023   0.3456    18.0686   0.3484
   67.25    17.5867   0.3441    17.9125   0.3466
   67.35    17.4603   0.3428    18.2734   0.3501
   67.45    17.9923   0.3481    17.9037   0.3466
   67.55    17.3671   0.3417    17.8106   0.3454
   67.65    17.8104   0.3113    17.9406   0.3122
   67.75    17.4317    0.282    17.5682   0.2829
   67.85     17.983   0.2864     17.595   0.2832
   67.95    18.1943   0.2882    17.9476    0.286
   68.05    18.3299   0.2892    18.1721   0.2877
   68.15    18.3035   0.2891    18.8693   0.2931
   68.25    19.1878    0.296    19.1682   0.2955
   68.35    18.8307   0.3604    19.1707   0.3632
   68.45    19.6319   0.3678    18.6741   0.3583
   68.55    19.2126   0.3639    18.9205   0.3609
   68.65    19.5502   0.3672    19.0949   0.3622
   68.75    19.2032   0.3636    19.1122   0.3621
   68.85    20.3045   0.3742    19.6385   0.3675
   68.95    19.4791   0.3663    19.9567   0.3704
   69.05    19.9673   0.3714    20.4182   0.3749
   69.15    20.2889   0.3742    19.8101   0.3691
   69.25    20.4328   0.3754    19.5766   0.3668
   69.35    19.8784   0.3706    19.5562   0.3667
   69.45    19.2329   0.3642    19.3517   0.3645
   69.55    19.4497   0.3663    19.5465   0.3664
   69.65    19.0547   0.3627    19.7336   0.3681
   69.75    20.0745   0.3719    19.5694   0.3666
   69.85    20.3484   0.3749    19.6477   0.3676
   69.95    21.2735   0.3829     21.079   0.3804
   70.05     21.872   0.3882    22.1842   0.3903
   70.15    23.8282   0.4054    24.2231   0.4079
   70.25    25.6356   0.4201    25.8405    0.421
   70.35    29.0493    0.401    29.9185   0.4066
   70.45    34.2689   0.3979    34.2791   0.3977
   70.55      41.11   0.4358    41.3899   0.4371
   70.65    51.2755   0.4869    51.5985   0.4881
   70.75     65.228   0.5491    65.5076   0.5497
   70.85    85.7548   0.6297    87.9713   0.6369
   70.95    122.376   0.7522   121.1967   0.7477
   71.05   166.8115   1.0881   168.5766   1.0925
   71.15   242.6139   1.3116   241.8126   1.3077
   71.25    321.809   1.5109   320.7537   1.5075
   71.35   360.5852   1.5996   362.3713   1.6004
   71.45   339.7414   1.5515   337.3175   1.5431
   71.55   270.8845   1.3863   270.5455   1.3836
   71.65   189.9086   1.1602   189.0711   1.1565
   71.75   126.1852    0.947   126.8984    0.948
   71.85    86.8116   0.7852    86.1307   0.7807
   71.95    62.9487   0.6683    62.0034   0.6622
   72.05    47.7069   0.5824    47.4713   0.5796
   72.15    37.3676   0.5149    38.6389   0.5225
   72.25    32.1401   0.4777     32.368   0.4783
   72.35    29.0275   0.4541    29.3708   0.4555
   72.45    27.5636   0.4421    27.5276    0.441
   72.55    28.9132   0.4533    28.3131   0.4476
   72.65    30.2679   0.4634    29.6177   0.4574
   72.75     36.393   0.5079    36.9271   0.5109
   72.85    48.6838   0.5878    48.7347   0.5869
   72.95    70.6159   0.7073    69.6576   0.7011
   73.05   113.3972    0.897    114.828   0.9013
   73.15   174.9881   0.8818   175.1621   0.8817
   73.25   225.3137   1.0011    224.229   0.9983
   73.35   234.4981   1.0211   231.0613    1.013
   73.45   194.6722   0.9305   192.5085   0.9243
   73.55   134.2178    0.773   132.0919   0.7658
   73.65    81.3336   0.6013    83.0315   0.6069
   73.75     51.341   0.5771    51.7733   0.5789
   73.85    36.5211   0.4866    37.0296   0.4892
   73.95    29.6937   0.4387    29.9374   0.4401
   74.05    25.8071   0.4092    25.0914   0.4029
   74.15    23.0048   0.3859    23.3832   0.3884
   74.25     21.161   0.3704     21.147   0.3698
   74.35     19.249   0.3533    19.8123   0.3579
   74.45    18.9164   0.3503    18.6167    0.347
   74.55    18.5463   0.3472    19.2545   0.3531
   74.65    17.9917   0.3414    18.0539   0.3415
   74.75    18.0002    0.342    18.0645   0.3419
   74.85    17.8335   0.3402    18.0254   0.3412
   74.95      17.73   0.3391     17.688    0.338
   75.05    18.6082   0.3478    18.1185   0.3422
   75.15    18.9064   0.3498    18.1658   0.3424
   75.25    18.7869   0.3494    18.9053   0.3497
   75.35    18.8269   0.3495    18.8181   0.3487
   75.45    18.6716   0.3479    18.9765   0.3501
   75.55    19.2676   0.3535    18.8029   0.3486
   75.65    18.2587   0.3438    18.2929   0.3434
   75.75    18.9118   0.3144    18.2545   0.3086
   75.85    18.5761   0.2852     18.262   0.2826
   75.95    18.2162   0.2822    17.9398     0.28
   76.05    18.0777   0.2815    17.8623   0.2796
   76.15    17.6225   0.2777    18.0437   0.2807
   76.25     17.419   0.2762    17.2413   0.2744
   76.35     17.187   0.2744    17.5117   0.2766
   76.45    17.8784   0.3374    17.4368   0.3327
   76.55    17.6864   0.3356    17.3833   0.3323
   76.65    17.2535   0.3313    18.3254   0.3412
   76.75    17.7326   0.3359    17.6521   0.3347
   76.85    16.8557   0.3275    17.0594   0.3288
   76.95    17.2411   0.3312    17.3655   0.3319
   77.05    17.4482   0.3332    17.4325   0.3327
   77.15     17.341   0.3324    17.5074   0.3334
   77.25    17.1601   0.3307    16.7775   0.3264
   77.35    17.0626   0.3297    17.2647    0.331
   77.45    16.5672    0.325    16.7636   0.3262
   77.55    16.4988   0.3241    16.5153   0.3236
   77.65    16.7759   0.3269    17.3962   0.3321
   77.75     17.322   0.3323    16.3783   0.3222
   77.85    16.5242   0.3244    16.2942   0.3215
   77.95    16.8168   0.3273    16.5388   0.3239
   78.05    16.4437   0.3235    16.7705   0.3261
   78.15    16.5844   0.3249    17.0542   0.3287
   78.25    17.3898   0.3326    17.0673   0.3291
   78.35    16.3626   0.3226     17.119   0.3294
   78.45    16.3284   0.2875    16.9603   0.2927
   78.55    16.8968   0.2666    16.3557   0.2621
   78.65    16.7254   0.2651    16.4938   0.2632
   78.75    17.0607    0.268    17.3505   0.2699
   78.85      17.07    0.268    16.5813   0.2639
   78.95    17.2916   0.2696    17.0568   0.2674
   79.05    17.1669   0.2688    17.3288   0.2697
   79.15    17.3738    0.298    18.2909   0.3054
   79.25    17.2697   0.3349    18.1128   0.3425
   79.35    18.0956   0.3429    17.7813   0.3397
   79.45    18.2968   0.3449    18.5156   0.3462
   79.55    18.5799   0.3472    17.7682    0.339
   79.65    18.7089   0.3487    18.7952    0.349
   79.75    18.6129   0.3476    18.3304   0.3446
   79.85    19.0477   0.3521    18.6157   0.3475
   79.95    19.1686   0.3531    18.8337   0.3494
   80.05    18.5892   0.3476    18.8209   0.3492
   80.15    19.5762   0.3571    20.0074   0.3601
   80.25    21.4686   0.3736    20.2332   0.3619
   80.35    21.4275   0.3733    21.8541   0.3761
   80.45    22.1699   0.3798    21.6348   0.3742
   80.55    23.5651   0.3912    23.5511   0.3904
   80.65     26.158   0.4127    25.3635   0.4055
   80.75    28.0753   0.4271    27.9507   0.4253
   80.85     31.809   0.4545    31.9921   0.4551
   80.95    39.3665   0.5059    37.5124   0.4928
   81.05    48.4547   0.5607    47.6964   0.5552
   81.15    61.4617    0.632    61.0076   0.6288
   81.25    68.6714   0.5329    69.8535   0.5372
   81.35    76.7134   0.5636    79.5849   0.5738
   81.45    78.2077   0.5689    78.0312    0.568
   81.55    70.6215   0.5407    70.3256   0.5389
   81.65    58.8468   0.4938    59.0657    0.494
   81.75    46.6457   0.4393    46.7936   0.4396
   81.85    35.1724   0.4586    35.0364   0.4572
   81.95    28.2557   0.4109    28.3707   0.4111
   82.05    24.3474   0.3814    24.3085   0.3808
   82.15    22.6571   0.3681    22.0423   0.3626
   82.25    20.4823   0.3496    20.1144   0.3458
   82.35    19.1104    0.338     19.194   0.3382
   82.45    18.2266     0.33    18.5122   0.3322
   82.55    17.4899   0.3234    17.7081   0.3249
   82.65    17.5741   0.3244    17.6283   0.3243
   82.75    17.3182   0.3216    17.5103   0.3229
   82.85    16.9928    0.319    16.9968   0.3184
   82.95    16.5455   0.3146    16.7457   0.3157
   83.05    16.8627   0.3175    16.9942   0.3181
   83.15    17.2957   0.3219    17.1058   0.3192
   83.25    16.8183   0.3168    16.8751   0.3168
   83.35    16.6219   0.3155    17.1337   0.3196
   83.45    16.7556   0.3165    17.1369   0.3195
   83.55    16.5712   0.3146     16.771    0.316
   83.65     17.168   0.3204    17.0038   0.3182
   83.75    16.5493   0.3143    16.8791   0.3167
   83.85    16.9267   0.3181    16.6084   0.3146
   83.95     16.677   0.2579     16.917   0.2595
   84.05    16.8416    0.259    16.9385   0.2597
   84.15    16.8496   0.2593    17.1345   0.2613
   84.25    17.1213   0.2612    17.5256    0.264
   84.35    17.4942   0.2642    17.0842   0.2608
   84.45    16.8671   0.2593    17.5586   0.2643
   84.55    17.2378   0.3184    16.6616   0.3126
   84.65    16.6818   0.3132    16.5834   0.3119
   84.75    16.9282   0.3153    16.4969    0.311
   84.85    17.0525   0.3167    16.5657   0.3118
   84.95    16.3255   0.3097    16.4098   0.3099
   85.05    16.0803   0.3074    16.6494   0.3123
   85.15    15.2827   0.2998     15.975   0.3061
   85.25    15.8144   0.3049     16.104   0.3072
   85.35    15.9468   0.3066    16.2665   0.3091
   85.45    16.3023   0.3095    16.0569   0.3067
   85.55    16.7813   0.3144    16.4945   0.3111
   85.65    17.2906   0.3189    16.7017   0.3128
   85.75     16.386   0.3104    16.9841   0.3153
   85.85    16.7527   0.3142     17.048   0.3161
   85.95    17.1584   0.3175    16.6148   0.3119
   86.05    17.4284   0.3203    17.0756   0.3163
   86.15    16.6051   0.3126    16.7626   0.3135
   86.25    16.7466   0.3138    17.0154   0.3155
   86.35    16.6357   0.3126    16.6557   0.3125
   86.45    16.3375   0.3099    16.3291   0.3091
   86.55     16.488   0.2785    16.5592   0.2788
   86.65    16.3752   0.2536    16.1782   0.2518
   86.75    15.8977   0.2495    16.5317   0.2545
   86.85    15.7937   0.2491     15.971   0.2502
   86.95    15.7491   0.2486     16.011   0.2504
   87.05    15.7376   0.2484    15.4609   0.2459
   87.15    15.2373   0.2446    14.9283   0.2418
   87.25    15.2708   0.2691    15.8882   0.2741
   87.35    15.5182   0.3047    15.2658   0.3018
   87.45    15.5964   0.3053    15.1184   0.3004
   87.55    15.3829   0.3033    15.2691   0.3017
   87.65    15.1388   0.3009    15.6963   0.3057
   87.75    15.1723   0.3012    14.6666   0.2956
   87.85    14.9122   0.2986    14.6021   0.2952
   87.95    14.2351   0.2919     15.502   0.3041
   88.05    14.7951   0.2976    14.6729   0.2959
   88.15    14.8418    0.298    14.9225   0.2983
   88.25    15.0879   0.3007    14.7677   0.2968
   88.35    14.7733   0.2973    14.9166   0.2982
   88.45    14.9495   0.2991    14.9344   0.2983
   88.55    15.0429   0.3001    14.6334   0.2952
   88.65     14.228   0.2918    14.7207   0.2962
   88.75    14.9818   0.2995    14.5034    0.294
   88.85     14.542   0.2949    14.2683   0.2916
   88.95    14.6805   0.2963    14.6259   0.2951
   89.05    14.4934   0.2943    15.0654   0.2997
   89.15     14.837   0.2978    14.2694   0.2915
   89.25    14.2804   0.2605    14.7099   0.2642
   89.35    14.1398   0.2362      14.73   0.2409
   89.45    14.1891   0.2366    14.2997   0.2374
   89.55    15.3468   0.2462    14.4503   0.2386
   89.65    14.9884   0.2433    14.8154   0.2416
   89.75     15.209    0.245     14.555   0.2393
   89.85    15.2054   0.2451    15.2691   0.2453
   89.95    14.9646    0.266    15.5277   0.2707
   90.05    15.9887   0.3067     15.666   0.3032
   90.15     16.837   0.3148    16.7575   0.3138
   90.25    17.6434   0.3223    17.1981   0.3176
   90.35    18.9326   0.3336    18.5704   0.3298
   90.45    19.6114   0.3397    20.8037   0.3495
   90.55    22.1151   0.3606    22.1717   0.3607
   90.65    24.7814   0.3822    24.6744   0.3807
   90.75    29.1381   0.4143    29.0918   0.4132
   90.85    35.3866   0.4564    35.3256   0.4553
   90.95    41.9674   0.4975    42.1127   0.4972
   91.05     47.661   0.5297    48.0481   0.5307
   91.15    50.3594   0.5446    51.2085   0.5479
   91.25    51.1339    0.549    50.6909   0.5451
   91.35    47.0347    0.526    47.4157   0.5272
   91.45    42.0301   0.4978    41.9117    0.496
   91.55    36.0862   0.4608    35.6086   0.4569
   91.65    29.8983   0.4193    29.7149   0.4174
   91.75    25.2932   0.3859    24.5601   0.3795
   91.85    22.0903   0.3603    20.9472   0.3502
   91.95    20.1779   0.2816    19.9084   0.2794
   92.05    18.3714   0.2684    18.4766   0.2691
   92.15    17.3353   0.2609    17.4756   0.2616
   92.25    16.8525   0.2573    16.6924   0.2559
   92.35    16.3819   0.2535    16.3768   0.2532
   92.45    15.5054   0.2468    15.7622   0.2484
   92.55     15.717   0.2485    15.7772   0.2487
   92.65    16.0009   0.3068    15.4454   0.3011
   92.75    15.7018   0.3039    15.7174   0.3038
   92.85    15.5616   0.3026    15.4736   0.3014
   92.95    15.4957   0.3019    15.7091   0.3035
   93.05    16.0407   0.3071    15.9743   0.3059
   93.15    15.3882   0.3009    15.3329   0.2999
   93.25    15.5777   0.3028     15.501   0.3017
   93.35    15.9521   0.3067    15.4072   0.3008
   93.45     15.423   0.3013     15.762   0.3041
   93.55    15.7157   0.3044    15.4171   0.3007
   93.65    15.4313   0.3014    15.9889   0.3062
   93.75    15.5748   0.3029    15.8898   0.3052
   93.85     15.565   0.3028    15.7526   0.3039
   93.95    15.7936    0.305    15.4045   0.3005
   94.05    16.2483   0.3092    15.4718   0.3011
   94.15    15.8089   0.3051    15.8204   0.3047
   94.25    15.5312   0.3024    15.7801   0.3042
   94.35    15.7776   0.3045    15.8244   0.3045
   94.45    15.2216   0.2993    15.8627   0.3048
   94.55    15.6795   0.3036    16.0611   0.3067
   94.65    15.9282   0.2731    15.6247   0.2702
   94.75    15.5496   0.2459    15.0205   0.2416
   94.85    15.4727   0.2453    15.8448   0.2481
   94.95    15.1139   0.2425    15.5232   0.2455
   95.05    15.0377   0.2419    15.8367    0.248
   95.15    15.5825   0.2461    15.0648   0.2417
   95.25    15.3767   0.2447    15.5178   0.2455
   95.35    15.6485   0.3028    15.8342   0.3042
   95.45    15.3875   0.2999    15.4772   0.3004
   95.55    15.4859    0.301    15.8147   0.3041
   95.65    16.0859   0.3068    15.8389   0.3037
   95.75    15.6495   0.3025    16.1894   0.3072
   95.85    16.4042   0.3099    15.5222   0.3011
   95.95    16.5173   0.3107    15.7129   0.3026
   96.05    16.0756   0.3071    15.7442   0.3033
   96.15    15.9124   0.3052    15.9587    0.305
   96.25    15.6338   0.3024    16.3586   0.3091
   96.35    15.7998   0.3045    15.7107   0.3027
   96.45    15.8325   0.3043    16.0815   0.3061
   96.55    15.2351   0.2989    15.9152   0.3046
   96.65    15.8529   0.3046    15.7981   0.3034
   96.75    15.7964   0.3041    15.8981   0.3046
   96.85    16.3004   0.3091    16.0158   0.3057
   96.95    16.5329   0.3109    16.1786   0.3068
   97.05    16.8529    0.314    16.4804   0.3101
   97.15    17.2204   0.3174     17.265   0.3172
   97.25    17.6202   0.3209     17.944   0.3233
   97.35    18.4371     0.27    19.2366   0.2756
   97.45    19.9335   0.2804    19.4205   0.2768
   97.55    21.5534   0.2919    21.7042   0.2926
   97.65     24.025   0.3082    23.7244    0.306
   97.75    26.6277   0.3243    27.1278    0.327
   97.85    30.1206   0.3452    29.8085   0.3429
   97.95    34.7811   0.4062    34.9101   0.4066
   98.05    39.9975   0.4875    40.3264   0.4889
   98.15    49.1159   0.5403    50.0556   0.5449
   98.25    57.9187   0.5868     57.841   0.5857
   98.35    66.8298   0.6302     67.619   0.6329
   98.45    72.8638   0.6577    72.8759   0.6567
   98.55    74.6114    0.666    76.5284   0.6734
   98.65    74.3974    0.665    73.9127   0.6621
   98.75    68.9508   0.6408    70.1681   0.6452
   98.85    62.8457   0.6112    63.1948    0.612
   98.95    54.9575   0.5722    53.8308   0.5648
   99.05    44.2839   0.5131    44.5836    0.514
   99.15    37.1834   0.4704    37.2286   0.4695
   99.25    30.4817   0.4258    30.7698   0.4269
   99.35    26.2621   0.3952    26.5559   0.3965
   99.45    23.3799   0.3728    23.5168    0.373
   99.55    21.3357   0.3563    21.4637   0.3567
   99.65    19.7341   0.3426    19.8317   0.3427
   99.75    18.8518   0.3345    18.4179   0.3302
   99.85    17.8126   0.3254    17.8635   0.3251
   99.95    17.0142   0.3179    17.0167   0.3173
  100.05    16.6099    0.279     16.389   0.2769
  100.15    16.3864   0.2518    16.2033   0.2503
  100.25    16.8786   0.2556    16.4123   0.2519
  100.35    16.2664   0.2509    16.4938   0.2524
  100.45    16.0399   0.2492    15.7317   0.2465
  100.55    16.1016   0.2496    16.7155    0.254
  100.65    16.5137    0.253    16.5507   0.2529
  100.75    16.4845   0.3105    16.5917   0.3111
  100.85    16.9218   0.3142    16.4023   0.3089
  100.95    16.8815    0.314    16.9636   0.3146
  101.05    16.7506   0.3128    16.5413   0.3101
  101.15    16.3614    0.309    16.2636   0.3076
  101.25    17.0804   0.3159    16.3209   0.3085
  101.35    15.7339   0.3029    15.5786    0.301
  101.45    15.7819   0.3039    15.9654   0.3052
  101.55    15.8707   0.3045    15.3642    0.299
  101.65    16.0599   0.3063    15.3951   0.2996
  101.75    15.2781   0.2991    15.3259   0.2987
  101.85    16.1471    0.307    16.0338   0.3054
  101.95    15.4113   0.3003    15.7339   0.3026
  102.05    15.7179    0.303    15.7102   0.3022
  102.15    15.8017   0.3039    14.8724   0.2943
  102.25    15.0996   0.2972    15.5778   0.3012
  102.35    15.0897   0.2967    14.5043   0.2903
  102.45    15.3381   0.2993    15.6164   0.3016
  102.55    15.6052   0.3019    15.7436   0.3026
  102.65    15.6738   0.3024    15.3292   0.2985
  102.75    15.4418   0.2658    15.8624   0.2692
  102.85    15.5572   0.2417    15.2979   0.2395
  102.95    15.7315   0.2432    15.1871   0.2388
  103.05    15.6563   0.2426    15.4735    0.241
  103.15    15.0555   0.2379    15.5137   0.2413
  103.25    15.4106   0.2408    15.4684   0.2409
  103.35    15.2263   0.2601    15.0508   0.2583
  103.45    15.6605    0.292    15.4436   0.2896
  103.55     15.199   0.2875    15.7456   0.2922
  103.65    15.4936   0.2903    15.4311   0.2896
  103.75    15.7112   0.2924    15.3345   0.2883
  103.85    15.4749     0.29    15.3153   0.2879
  103.95    15.6263   0.2916     14.901   0.2844
  104.05    15.3666    0.289     15.456   0.2896
  104.15    15.8063   0.2935    15.2117   0.2874
  104.25    15.3195   0.2888    15.7743   0.2926
  104.35    14.9438   0.2852    15.3785   0.2888
  104.45    15.2073    0.288     15.574   0.2907
  104.55     15.303   0.2886    15.3962   0.2889
  104.65    14.9242   0.2851    15.2301   0.2873
  104.75    15.3368   0.2891    14.8414   0.2836
  104.85    15.4014   0.2894    15.0911    0.286
  104.95    15.2404   0.2882    15.0438   0.2857
  105.05      14.71   0.2829    14.8845    0.284
  105.15    15.2327   0.2878    15.0732   0.2858
  105.25    15.1195   0.2869    14.9046   0.2842
  105.35    14.7817   0.2834    14.9424   0.2844
  105.45    15.1284   0.2579    14.6397   0.2535
  105.55    14.1903   0.2287    14.0133   0.2271
  105.65    14.7278    0.233     14.705   0.2327
  105.75    14.8434    0.234    14.2535   0.2291
  105.85    14.3703   0.2302    14.2805   0.2292
  105.95    14.6144   0.2322    14.2592    0.229
  106.05    14.6096   0.2321    14.3528   0.2298
  106.15    14.7379   0.2854    14.3716   0.2815
  106.25    14.4029    0.282    14.4099   0.2817
  106.35    14.6961   0.2849    14.8711   0.2864
  106.45    15.1763   0.2896     14.896   0.2863
  106.55    15.0645   0.2883    14.9598   0.2867
  106.65    14.4882   0.2829    14.8022   0.2856
  106.75    14.9929   0.2876    14.3028   0.2807
  106.85    15.3104   0.2911    14.9575   0.2872
  106.95    14.9826   0.2878    14.7689   0.2852
  107.05    15.4248   0.2919    14.7529    0.285
  107.15    14.9733   0.2879    15.1825   0.2892
  107.25    14.7674   0.2856    14.7717   0.2851
  107.35    15.0789   0.2887    14.7791   0.2852
  107.45    15.0387   0.2884    15.0227   0.2875
  107.55    14.9341   0.2871    14.7371   0.2847
  107.65    15.1177   0.2892    14.7709   0.2853
  107.75    15.2095   0.2898    15.4295   0.2913
  107.85    14.8624   0.2864    15.2581   0.2898
  107.95    15.5038   0.2927    14.7512   0.2849
  108.05    15.4253   0.2917    14.8671   0.2858
  108.15    15.2596   0.2634    15.2769   0.2634
  108.25    15.7266   0.2465    15.9991   0.2484
  108.35    15.6874   0.2462    15.2194   0.2423
  108.45    16.3036   0.2511    16.2554   0.2505
  108.55    16.1939   0.2502    16.1862   0.2498
  108.65    16.2027   0.2503    16.5333   0.2525
  108.75    16.3987   0.2518    16.6517   0.2534
  108.85    16.5738    0.318    16.7226   0.3191
  108.95    17.3375   0.3251    16.6605   0.3183
  109.05    17.7472    0.329    17.7741    0.329
  109.15    18.4244   0.3353     18.084   0.3315
  109.25    18.9623   0.3399    18.8807   0.3385
  109.35    19.6953   0.3466    20.1113   0.3498
  109.45    20.9378   0.3572    21.0915   0.3582
  109.55    23.3778   0.3779    22.4106   0.3694
  109.65    25.5868   0.3952    25.3912    0.393
  109.75    27.2643   0.4078    27.9185    0.412
  109.85    31.4007   0.4381    31.8464   0.4402
  109.95    35.2197   0.4635    35.3156   0.4632
  110.05    41.1646   0.5013    41.3839   0.5014
  110.15    49.5644   0.5502    48.5773   0.5432
  110.25    58.6254   0.5978    58.5594   0.5964
  110.35    70.7548   0.6575    71.2862   0.6586
  110.45    84.6547   0.7185    86.1039   0.7232
  110.55   105.7505   0.8028   106.0777   0.8028
  110.65    128.508   0.8855   126.2756   0.8759
  110.75   158.4267   0.9823   155.7958   0.9722
  110.85   184.7465   0.8486   183.1015    0.844
  110.95   205.8517   0.8949   205.6209   0.8943
  111.05   218.4633   0.9224   219.7039   0.9241
  111.15   223.7687   0.9339   224.9805   0.9358
  111.25   222.8775   0.9315   224.1234   0.9329
  111.35   216.5388   0.9186   219.2253   0.9229
  111.45   204.2043   0.8921   202.8471   0.8881
  111.55   191.6768   1.0635   190.3366   1.0585
  111.65   168.6545   0.9977   166.8569   0.9913
  111.75   141.4991    0.914   142.8459   0.9173
  111.85   116.2646   0.8283   116.1093   0.8264
  111.95    92.5552   0.7387    92.8862   0.7388
  112.05    73.0803   0.6568    74.1105   0.6604
  112.15    57.3944   0.5821    58.0582   0.5848
  112.25    47.0253   0.5273    46.6027    0.524
  112.35    38.1032   0.4743    38.8933   0.4785
  112.45    33.2281   0.4434    32.9732   0.4405
  112.55     28.675   0.4115    28.7775   0.4115
  112.65    26.4671   0.3955    25.5412   0.3875
  112.75     23.873   0.3755    23.9033    0.375
  112.85     22.808   0.3671    22.7795    0.366
  112.95    21.0871   0.3528    22.4844   0.3635
  113.05    21.2414   0.3543    21.1328   0.3527
  113.15    20.8561    0.351    21.5652   0.3562
  113.25    20.9615   0.3515    20.8363     0.35
  113.35    21.3135   0.3547    21.4009   0.3546
  113.45    21.7031   0.3578    22.3812   0.3626
  113.55    22.7528    0.324    23.1898   0.3267
  113.65    24.3772   0.3038    24.8763   0.3068
  113.75    27.6548   0.3236    27.9393   0.3251
  113.85    32.0976   0.3486    31.9979   0.3478
  113.95    37.2909   0.3758    37.5748   0.3769
  114.05    45.2384   0.4138    45.7808   0.4157
  114.15    57.0137   0.4649    56.1295   0.4607
  114.25    69.9638   0.6131    70.0537   0.6126
  114.35    87.6995   0.6856    86.6351   0.6805
  114.45   107.6693     0.76   109.2383   0.7653
  114.55   138.6575   0.8626   137.2947   0.8562
  114.65   178.6026   0.9787   178.7498   0.9774
  114.75   232.5727   1.1174   232.9715   1.1172
  114.85   287.8082   1.2418   292.2112   1.2497
  114.95   342.0145   1.3562   344.0338   1.3578
  115.05   374.4279   1.4178   375.9274   1.4177
  115.15   394.8841   1.4556   392.8598   1.4505
  115.25    402.656   1.4718   401.0344   1.4647
  115.35   400.5124   1.4656   399.9096   1.4617
  115.45   393.0591   1.4538   395.0442   1.4532
  115.55   373.0593   1.4149   374.5429   1.4145
  115.65   346.2789   1.3635   342.4932   1.3536
  115.75   298.0472   1.2657   299.7573   1.2666
  115.85   248.6147   1.1545   246.8946   1.1479
  115.95   201.7855   1.0404   201.2873   1.0379
  116.05    155.521   0.9135   153.0917   0.9044
  116.15   114.7479   0.7842   114.3373   0.7814
  116.25    79.0706     0.53    79.0549   0.5295
  116.35    59.0903   0.4577    59.2289   0.4581
  116.45    46.9581   0.4084    46.4011   0.4056
  116.55    39.5083   0.3746    39.6266   0.3748
  116.65    34.4827   0.3498    34.2858   0.3484
  116.75    29.9683   0.3263    30.2212   0.3272
  116.85     27.295   0.3405    28.1395   0.3454
  116.95    25.6573   0.3686    26.0435   0.3709
  117.05    24.3563   0.3591    23.9377   0.3557
  117.15    23.2758   0.3511    22.9906   0.3486
  117.25    22.8098   0.3475    22.0917   0.3415
  117.35     21.785   0.3395    22.1484   0.3417
  117.45    21.2432   0.3354    21.7028   0.3385
  117.55    21.4514   0.3371     20.895   0.3323
  117.65    21.2175   0.3355    21.0882   0.3339
  117.75    21.6556   0.3387     21.538   0.3373
  117.85    22.2436   0.3436     22.503   0.3447
  117.95    22.5754   0.3458    22.9051   0.3477
  118.05    23.6455   0.3541    23.8545   0.3547
  118.15    24.5989   0.3611    24.4335   0.3591
  118.25    26.4363   0.3743    25.9191   0.3698
  118.35    28.2041   0.3865    27.7075   0.3822
  118.45    30.2272   0.4003    30.4262   0.4009
  118.55    32.6586   0.4161    32.4582   0.4139
  118.65    35.7726    0.435    35.8271   0.4347
  118.75    38.8485   0.4536    39.3558   0.4555
  118.85    42.2562   0.4729    43.5452   0.4791
  118.95    44.5105    0.405    46.1736   0.4121
  119.05    48.1869   0.4212    47.7325   0.4193
  119.15    49.4513   0.4269    49.3259   0.4259
  119.25    50.0767   0.4296    50.0157    0.429
  119.35    49.8989   0.4287    50.0643   0.4289
  119.45    48.5812    0.423    49.2164   0.4252
  119.55    47.0059   0.4165    47.5188   0.4182
  119.65    45.9835   0.5102    47.3987   0.5173
  119.75     43.544   0.4961    43.2794   0.4941
  119.85    40.7058   0.4799    40.3148   0.4772
  119.95    37.1191   0.4582    36.9705   0.4563
  120.05    33.8143   0.4373    34.5677   0.4414
  120.15    31.3366   0.4212    31.6872   0.4229
  120.25    28.8462   0.4039    27.9926   0.3973
  120.35    26.0968   0.3847    26.8017   0.3892
  120.45    24.7295    0.374    24.7352   0.3734
  120.55    23.5619   0.3654    23.2746   0.3625
  120.65    23.4994   0.3647    23.0051   0.3601
  120.75     22.429   0.3563    22.7486    0.358
  120.85     22.664   0.3585    22.7545   0.3582
  120.95    22.7139   0.3584    22.9453   0.3595
  121.05    24.0376    0.369    23.9759   0.3677
  121.15    24.6926   0.3739    25.3037   0.3778
  121.25    26.1808   0.3849    26.6939   0.3877
  121.35    29.0936   0.4055    28.8049   0.4031
  121.45    31.3119   0.4208    31.5442   0.4214
  121.55    33.4835   0.4351    33.7717   0.4362
  121.65    36.3055   0.4531    37.2572   0.4583
  121.75      39.02   0.4692     38.699    0.467
  121.85     40.446   0.4784    41.4091   0.4834
  121.95    42.2092    0.488    41.6146    0.484
  122.05    42.5173   0.4899    43.6861   0.4959
  122.15    43.3191   0.4947    42.5034   0.4893
  122.25    43.0218   0.5761    43.7203   0.5802
  122.35    41.2402   0.7096    41.3939   0.7102
  122.45    42.2073   0.7167    41.4886   0.7099
  122.55    40.2191   0.6998    40.0745   0.6985
  122.65    38.2607   0.6828    37.3123   0.6728
  122.75    34.9002   0.6519    34.6148   0.6482
  122.85    33.5867   0.6401    32.6505   0.6307
  122.95    29.8136   0.6023    31.0299   0.6138
  123.05    28.3688   0.5883    28.4059   0.5878
  123.15     26.175   0.5648    25.7243   0.5587
  123.25    23.5315   0.5351    24.4781   0.5454
  123.35    22.1282   0.5193    22.2776   0.5202
  123.45    21.3488   0.5098    21.9302   0.5158
  123.55    21.0588    0.507    22.0973   0.5178
  123.65    19.9596    0.493    20.3239   0.4964
  123.75    19.5347   0.4876    19.5316   0.4869
  123.85    19.9826   0.4936    19.4991   0.4869
  123.95    20.0956   0.4944    19.1907    0.482
  124.05    20.0395   0.4936    18.8415   0.4786
  124.15    18.9323   0.4801    18.5101   0.4738
  124.25    17.9177   0.4667    18.7465   0.4766
  124.35    17.4674   0.4611    17.6854   0.4635
  124.45    17.2079   0.4571    16.7461   0.4505
  124.55    16.4058   0.4468    16.7621   0.4509
  124.65    15.6913   0.4365     17.339   0.4585
  124.75    16.3491   0.4455    16.5205   0.4472
  124.85    15.8837   0.4399    16.9483   0.4536
  124.95    15.7492   0.6182    16.2687    0.628

loop_
_exclude_id
_exclude_2theta_min
_exclude_2theta_max
  1    0.0    27.0
  2   36.0    46.0
  3   51.0    56.0
  4   63.0   124.0

loop_
_pd_proc_2theta
_pd_proc_2theta_corrected
_pd_proc_intensity_plus_net
_pd_proc_intensity_minus_net
_pd_proc_intensity_bkg_calc
_pd_proc_intensity_plus
_pd_proc_intensity_plus_sigma
_pd_proc_intensity_minus
_pd_proc_intensity_minus_sigma
_pd_proc_excluded
   6.05    6.12      10.96      10.96   54.59    31.5412   0.4139    32.22   0.42    True
   6.15    6.22      10.82      10.82   54.39    31.5688   0.4141    30.94   0.41    True
   6.25    6.32      10.69      10.69   54.18    30.8216   0.4092    30.69   0.41    True
   6.35    6.42      10.56      10.56   53.97    30.1504   0.4048    30.64   0.41    True
   6.45    6.52      10.43      10.43   53.76    30.3533   0.4062    30.43   0.41    True
   6.55    6.62      10.31      10.31   53.55     29.328   0.3994    29.67   0.40    True
   6.65    6.72      10.19      10.19   53.33    29.1787   0.3983    28.90   0.40    True
   6.75    6.82      10.07      10.07   53.11    28.9091   0.3962    29.42   0.40    True
   6.85    6.92       9.96       9.96   52.89    28.3114   0.3923    28.10   0.39    True
   6.95    7.02       9.85       9.85   52.64    28.1288   0.3911    27.77   0.39    True
   7.05    7.12       9.75       9.75   52.42    27.7084   0.3885    27.42   0.39    True
   7.15    7.22       9.65       9.65   52.17    26.4673   0.3793    26.65   0.38    True
   7.25    7.32       9.55       9.55   51.95    26.8895   0.3828    27.00   0.38    True
   7.35    7.42       9.45       9.45   51.72    26.6891    0.381    26.97   0.38    True
   7.45    7.52       9.36       9.36   51.50    26.3376   0.3786    26.36   0.38    True
   7.55    7.62       9.27       9.27   51.28     26.516   0.3798    26.29   0.38    True
   7.65    7.72       9.18       9.18   51.06    25.6925   0.3739    25.65   0.37    True
   7.75    7.82       9.09       9.09   50.82    24.8983   0.3679    26.03   0.38    True
   7.85    7.92       9.01       9.01   50.64    25.2357   0.3706    24.92   0.37    True
   7.95    8.02       8.93       8.93   50.40    25.6641   0.3737    24.99   0.37    True
   8.05    8.12       8.85       8.85   50.22    24.7854   0.3668    24.92   0.37    True
   8.15    8.22       8.77       8.77   49.99    25.3941   0.3716    24.70   0.37    True
   8.25    8.32       8.70       8.70   49.79     25.284   0.3317    25.16   0.33    True
   8.35    8.42       8.63       8.63   49.59    25.5567   0.3048    25.32   0.30    True
   8.45    8.52       8.56       8.56   49.39    25.3737   0.3034    24.91   0.30    True
   8.55    8.62       8.49       8.49   49.20    25.4524   0.3042    25.23   0.30    True
   8.65    8.72       8.42       8.42   49.03    24.3858   0.2977    24.28   0.30    True
   8.75    8.82       8.35       8.35   48.83    24.9434   0.3009    24.41   0.30    True
   8.85    8.92       8.29       8.29   48.67    24.6948   0.2996    24.76   0.30    True
   8.95    9.02       8.23       8.23   48.49    24.4162    0.298    24.08   0.30    True
   9.05    9.12       8.17       8.17   48.34    25.6196   0.3747    24.52   0.37    True
   9.15    9.22       8.11       8.11   48.17    24.4288   0.3658    25.46   0.37    True
   9.25    9.32       8.05       8.05   47.99    24.1083   0.3634    25.11   0.37    True
   9.35    9.42       7.99       7.99   47.80    24.2962   0.3648    24.42   0.36    True
   9.45    9.52       7.94       7.94   47.64    24.5224   0.3665    24.17   0.36    True
   9.55    9.62       7.89       7.89   47.47    24.2643   0.3646    24.19   0.36    True
   9.65    9.72       7.83       7.83   47.33    24.4076   0.3658    24.57   0.37    True
   9.75    9.82       7.78       7.78   47.17    23.7768   0.3611    24.56   0.37    True
   9.85    9.92       7.73       7.73   47.01     23.705   0.3605    23.44   0.36    True
   9.95   10.02       7.68       7.68   46.86    24.1185   0.3638    23.50   0.36    True
  10.05   10.12       7.64       7.64   46.71    23.6363   0.3599    23.35   0.36    True
  10.15   10.22       7.59       7.59   46.56    23.0635   0.3556    23.43   0.36    True
  10.25   10.32       7.55       7.55   46.44    23.3141   0.3576    22.63   0.35    True
  10.35   10.42       7.50       7.50   46.27    23.5777   0.3596    23.95   0.36    True
  10.45   10.52       7.46       7.46   46.13    23.1878   0.3566    23.13   0.36    True
  10.55   10.62       7.42       7.42   45.99    23.2778   0.3571    22.58   0.35    True
  10.65   10.72       7.38       7.38   45.85    23.8011   0.3611    23.63   0.36    True
  10.75   10.82       7.33       7.33   45.71     23.471   0.3585    23.83   0.36    True
  10.85   10.92       7.30       7.30   45.58    22.9828   0.3548    23.31   0.36    True
  10.95   11.02       7.26       7.26   45.45    23.9683   0.3623    23.43   0.36    True
  11.05   11.12       7.22       7.22   45.32    23.5537   0.2925    24.18   0.30    True
  11.15   11.22       7.18       7.18   45.19    23.5955   0.2928    23.48   0.29    True
  11.25   11.32       7.15       7.15   45.09    23.3257   0.2911    23.50   0.29    True
  11.35   11.42       7.11       7.11   44.96     23.214   0.2905    23.30   0.29    True
  11.45   11.52       7.08       7.08   44.84    23.3409   0.2912    23.18   0.29    True
  11.55   11.62       7.04       7.04   44.72    23.4095   0.2916    23.26   0.29    True
  11.65   11.72       7.01       7.01   44.59    23.1895   0.3183    24.13   0.32    True
  11.75   11.82       6.98       6.98   44.47    24.3087   0.3645    24.03   0.36    True
  11.85   11.92       6.95       6.95   44.35    23.7065   0.3599    23.38   0.36    True
  11.95   12.02       6.92       6.92   44.22    24.3781   0.3652    23.67   0.36    True
  12.05   12.12       6.89       6.89   44.10      23.74     0.36    22.97   0.35    True
  12.15   12.22       6.86       6.86   43.98    23.6085   0.3593    22.70   0.35    True
  12.25   12.32       6.83       6.83   43.85    23.3723   0.3575    23.83   0.36    True
  12.35   12.42       6.80       6.80   43.73    23.4516   0.3582    22.72   0.35    True
  12.45   12.52       6.78       6.78   43.61    23.7444   0.3607    23.15   0.36    True
  12.55   12.62       6.75       6.75   43.49    23.3123   0.3569    22.87   0.35    True
  12.65   12.72       6.72       6.72   43.36     22.648   0.3523    23.68   0.36    True
  12.75   12.82       6.70       6.70   43.24    23.5263   0.3588    22.38   0.35    True
  12.85   12.92       6.68       6.68   43.12    23.0696   0.3553    22.57   0.35    True
  12.95   13.02       6.65       6.65   42.99    23.3047   0.3574    22.70   0.35    True
  13.05   13.12       6.63       6.63   42.87    22.5476   0.3508    22.84   0.35    True
  13.15   13.22       6.60       6.60   42.75    22.6211   0.3521    23.02   0.35    True
  13.25   13.32       6.58       6.58   42.62    22.4302   0.3503    22.77   0.35    True
  13.35   13.42       6.56       6.56   42.50    21.8498   0.3456    22.35   0.35    True
  13.45   13.52       6.54       6.54   42.38    22.1651   0.3482    22.74   0.35    True
  13.55   13.62       6.52       6.52   42.25    22.0527    0.347    21.45   0.34    True
  13.65   13.72       6.50       6.50   42.13     22.217   0.3485    22.05   0.35    True
  13.75   13.82       6.48       6.48   42.01    21.7702   0.3068    21.81   0.31    True
  13.85   13.92       6.46       6.46   41.88    21.8146   0.2795    21.21   0.28    True
  13.95   14.02       6.44       6.44   41.76    21.3255   0.2763    21.76   0.28    True
  14.05   14.12       6.42       6.42   41.64    21.2839   0.2759    21.66   0.28    True
  14.15   14.22       6.41       6.41   41.51    21.3895   0.2769    21.31   0.28    True
  14.25   14.32       6.39       6.39   41.38    21.6132   0.2781    21.44   0.28    True
  14.35   14.42       6.37       6.37   41.26    20.8817   0.3333    21.04   0.33    True
  14.45   14.52       6.35       6.35   41.14    20.9537   0.3342    21.55   0.34    True
  14.55   14.62       6.34       6.34   41.02    20.9973   0.3341    20.93   0.33    True
  14.65   14.72       6.32       6.32   40.90    20.6791   0.3317    20.87   0.33    True
  14.75   14.82       6.31       6.31   40.78    20.5822    0.331    20.61   0.33    True
  14.85   14.92       6.29       6.29   40.67    20.3254   0.3288    20.63   0.33    True
  14.95   15.02       6.28       6.28   40.55    20.3901   0.3295    20.37   0.33    True
  15.05   15.12       6.27       6.27   40.45    19.7592   0.3241    20.44   0.33    True
  15.15   15.22       6.25       6.25   40.32    19.9036   0.3259    20.52   0.33    True
  15.25   15.32       6.24       6.24   40.22    21.2421   0.3363    20.06   0.33    True
  15.35   15.42       6.23       6.23   40.11    20.0214   0.3264    20.00   0.33    True
  15.45   15.52       6.21       6.21   40.00    20.7219   0.3325    20.15   0.33    True
  15.55   15.62       6.20       6.20   39.90    20.1254   0.3272    20.13   0.33    True
  15.65   15.72       6.19       6.19   39.81    20.1626   0.3279    19.50   0.32    True
  15.75   15.82       6.18       6.18   39.70    19.8916   0.3254    20.02   0.33    True
  15.85   15.92       6.17       6.17   39.60     20.024   0.3266    19.85   0.32    True
  15.95   16.02       6.16       6.16   39.51    19.9289    0.326    19.65   0.32    True
  16.05   16.12       6.15       6.15   39.44     19.638   0.3232    19.66   0.32    True
  16.15   16.22       6.14       6.14   39.34    20.4266   0.3297    19.45   0.32    True
  16.25   16.32       6.13       6.13   39.25    20.0278   0.3265    19.14   0.32    True
  16.35   16.42       6.12       6.12   39.16    19.9238   0.3254    20.05   0.33    True
  16.45   16.52       6.12       6.12   39.08    19.9474   0.2939    20.08   0.29    True
  16.55   16.62       6.11       6.11   38.99     20.283   0.2719    20.09   0.27    True
  16.65   16.72       6.10       6.10   38.91    20.0041   0.2701    20.42   0.27    True
  16.75   16.82       6.09       6.09   38.83    20.2193   0.2716    20.74   0.27    True
  16.85   16.92       6.09       6.09   38.75    20.4077   0.2729    20.37   0.27    True
  16.95   17.02       6.08       6.08   38.67    19.8611   0.2693    20.11   0.27    True
  17.05   17.12       6.07       6.07   38.60     19.696   0.2939    20.01   0.30    True
  17.15   17.22       6.07       6.07   38.50    20.1649   0.3335    20.28   0.33    True
  17.25   17.32       6.06       6.06   38.42     20.668   0.3374    20.07   0.33    True
  17.35   17.42       6.06       6.06   38.35    20.0649   0.3325    19.94   0.33    True
  17.45   17.52       6.05       6.05   38.28    20.0608   0.3325    19.65   0.33    True
  17.55   17.62       6.05       6.05   38.21    19.9196   0.3311    19.22   0.32    True
  17.65   17.72       6.04       6.04   38.13    19.9849   0.3319    19.47   0.33    True
  17.75   17.82       6.04       6.04   38.07    19.3435   0.3264    19.06   0.32    True
  17.85   17.92       6.04       6.04   37.99    19.4017   0.3273    18.64   0.32    True
  17.95   18.02       6.03       6.03   37.93    18.9995   0.3238    19.48   0.33    True
  18.05   18.12       6.03       6.03   37.89    18.9251    0.323    18.53   0.32    True
  18.15   18.22       6.03       6.03   37.82    18.9564   0.3236    18.73   0.32    True
  18.25   18.32       6.03       6.03   37.76    18.6605   0.3207    19.68   0.33    True
  18.35   18.42       6.03       6.03   37.72    18.9513   0.3233    18.74   0.32    True
  18.45   18.52       6.02       6.02   37.67    19.0957   0.3246    19.17   0.32    True
  18.55   18.62       6.02       6.02   37.63    18.5046   0.3193    19.03   0.32    True
  18.65   18.72       6.02       6.02   37.58     19.044   0.3243    19.15   0.32    True
  18.75   18.82       6.02       6.02   37.55    18.6593   0.3207    18.65   0.32    True
  18.85   18.92       6.02       6.02   37.50    18.6411   0.3204    19.05   0.32    True
  18.95   19.02       6.02       6.02   37.47      18.69    0.321    19.70   0.33    True
  19.05   19.12       6.02       6.02   37.46    19.6678    0.329    19.33   0.33    True
  19.15   19.22       6.02       6.02   37.43    19.7023   0.2716    19.92   0.27    True
  19.25   19.32       6.03       6.03   37.40    20.3453   0.2757    20.57   0.28    True
  19.35   19.42       6.03       6.03   37.38    20.0905   0.2741    20.37   0.28    True
  19.45   19.52       6.03       6.03   37.35    20.1981    0.275    19.98   0.27    True
  19.55   19.62       6.03       6.03   37.33     19.917   0.2729    20.29   0.28    True
  19.65   19.72       6.04       6.04   37.31    19.7032   0.2715    19.15   0.27    True
  19.75   19.82       6.04       6.04   37.29    19.7711    0.272    18.93   0.27    True
  19.85   19.92       6.04       6.04   37.27    20.1621   0.3433    19.96   0.34    True
  19.95   20.02       6.05       6.05   37.25    19.9938   0.3419    19.71   0.34    True
  20.05   20.12       6.05       6.05   37.23    19.6985   0.3394    20.02   0.34    True
  20.15   20.22       6.06       6.06   37.20     19.631   0.3388    20.07   0.34    True
  20.25   20.32       6.06       6.06   37.18    19.8886   0.3408    20.02   0.34    True
  20.35   20.42       6.07       6.07   37.16    20.4376   0.3457    20.53   0.35    True
  20.45   20.52       6.07       6.07   37.14    20.8135   0.3489    20.28   0.34    True
  20.55   20.62       6.08       6.08   37.12    20.6616   0.3479    20.96   0.35    True
  20.65   20.72       6.09       6.09   37.09    20.6591   0.3476    20.41   0.34    True
  20.75   20.82       6.10       6.10   37.07    20.4106   0.3458    20.28   0.34    True
  20.85   20.92       6.10       6.10   37.05    19.2647   0.3357    19.73   0.34    True
  20.95   21.02       6.11       6.11   37.03     19.721   0.3398    19.66   0.34    True
  21.05   21.12       6.12       6.12   37.00    19.4527   0.3374    18.54   0.33    True
  21.15   21.22       6.13       6.13   36.98    18.8428   0.3321    18.84   0.33    True
  21.25   21.32       6.14       6.14   36.96    19.2399   0.3354    19.37   0.34    True
  21.35   21.42       6.15       6.15   36.93    18.8763   0.3324    19.29   0.34    True
  21.45   21.52       6.16       6.16   36.91    19.1737    0.335    19.29   0.34    True
  21.55   21.62       6.17       6.17   36.88    18.7617    0.331    18.62   0.33    True
  21.65   21.72       6.18       6.18   36.86    19.2716   0.3357    18.37   0.33    True
  21.75   21.82       6.19       6.19   36.84    18.9988   0.3332    18.99   0.33    True
  21.85   21.92       6.21       6.21   36.81    19.1261   0.2758    19.18   0.28    True
  21.95   22.02       6.22       6.22   36.79    19.3313   0.2772    19.07   0.28    True
  22.05   22.12       6.23       6.23   36.76    19.0867   0.2755    19.72   0.28    True
  22.15   22.22       6.25       6.25   36.74    19.9787   0.2819    19.95   0.28    True
  22.25   22.32       6.26       6.26   36.71    20.2398   0.2837    20.14   0.28    True
  22.35   22.42       6.28       6.28   36.68    19.8357   0.2808    19.97   0.28    True
  22.45   22.52       6.29       6.29   36.66    20.0671   0.2827    20.00   0.28    True
  22.55   22.62       6.31       6.31   36.63    20.0601   0.3485    19.99   0.35    True
  22.65   22.72       6.33       6.33   36.61    20.0617   0.3482    19.76   0.35    True
  22.75   22.82       6.34       6.34   36.58     19.775   0.3459    19.81   0.35    True
  22.85   22.92       6.36       6.36   36.55    19.7028   0.3452    20.10   0.35    True
  22.95   23.02       6.38       6.38   36.53    20.0616   0.3483    19.62   0.34    True
  23.05   23.12       6.40       6.40   36.50    19.8251   0.3464    19.36   0.34    True
  23.15   23.22       6.42       6.42   36.47    19.6063   0.3443    19.10   0.34    True
  23.25   23.32       6.44       6.44   36.45    18.2842    0.333    19.36   0.34    True
  23.35   23.42       6.46       6.46   36.42    18.3424   0.3331    18.98   0.34    True
  23.45   23.52       6.49       6.49   36.39    18.3723   0.3337    18.84   0.34    True
  23.55   23.62       6.51       6.51   36.36    18.8587   0.3379    18.91   0.34    True
  23.65   23.72       6.53       6.53   36.33    19.0714   0.3397    19.31   0.34    True
  23.75   23.82       6.56       6.56   36.31    18.7798   0.3375    19.52   0.34    True
  23.85   23.92       6.59       6.59   36.28    18.4311   0.3338    18.96   0.34    True
  23.95   24.02       6.61       6.61   36.25    18.9586   0.3389    18.40   0.33    True
  24.05   24.12       6.64       6.64   36.22    18.9407   0.3387    18.76   0.34    True
  24.15   24.22       6.67       6.67   36.19    18.9519   0.3386    18.61   0.33    True
  24.25   24.32       6.70       6.70   36.16    18.3343   0.3329    18.87   0.34    True
  24.35   24.42       6.73       6.73   36.13    19.2193   0.3409    18.61   0.33    True
  24.45   24.52       6.76       6.76   36.10    18.6174   0.3355    18.71   0.34    True
  24.55   24.62       6.79       6.79   36.07    18.7251   0.2988    18.76   0.30    True
  24.65   24.72       6.83       6.83   36.04    19.0502   0.2738    18.95   0.27    True
  24.75   24.82       6.86       6.86   36.01    18.3778    0.269    18.45   0.27    True
  24.85   24.92       6.90       6.90   35.98    18.6177   0.2706    18.53   0.27    True
  24.95   25.02       6.94       6.94   35.95    19.0337   0.2738    18.58   0.27    True
  25.05   25.12       6.98       6.98   35.92    18.7259   0.2715    18.87   0.27    True
  25.15   25.22       7.02       7.02   35.88    18.5448   0.2964    18.58   0.30    True
  25.25   25.32       7.06       7.06   35.86    18.1774    0.329    18.06   0.33    True
  25.35   25.42       7.11       7.11   35.83    18.4292   0.3308    18.02   0.33    True
  25.45   25.52       7.15       7.15   35.80    18.8829   0.3351    17.90   0.33    True
  25.55   25.62       7.20       7.20   35.76    17.9888   0.3271    18.23   0.33    True
  25.65   25.72       7.25       7.25   35.73    18.1447   0.3284    18.28   0.33    True
  25.75   25.82       7.30       7.30   35.71    17.9443   0.3267    18.39   0.33    True
  25.85   25.92       7.35       7.35   35.68    17.9616   0.3266    17.82   0.32    True
  25.95   26.02       7.41       7.41   35.65    18.1669   0.3291    17.78   0.32    True
  26.05   26.12       7.47       7.47   35.63    17.3552   0.3213    18.14   0.33    True
  26.15   26.22       7.53       7.53   35.61    17.8741    0.326    18.52   0.33    True
  26.25   26.32       7.59       7.59   35.59    17.9766   0.3274    18.16   0.33    True
  26.35   26.42       7.66       7.66   35.57     17.677   0.3241    18.20   0.33    True
  26.45   26.52       7.72       7.72   35.57    17.7535   0.3253    17.66   0.32    True
  26.55   26.62       7.79       7.79   35.56    17.7164   0.3246    17.71   0.32    True
  26.65   26.72       7.87       7.87   35.54    17.8027   0.3255    18.09   0.33    True
  26.75   26.82       7.95       7.95   35.53      17.87   0.3263    18.33   0.33    True
  26.85   26.92       8.03       8.03   35.54    18.1862   0.3287    17.07   0.32    True
  26.95   27.02       8.11       8.11   35.52    17.5788   0.3233    18.24   0.33    True
  27.05   27.12       8.20       8.20   35.53    18.5114   0.3318    17.72   0.32   False
  27.15   27.22       8.30       8.30   35.53    18.2454   0.3292    18.16   0.33   False
  27.25   27.32       8.39       8.39   35.53    18.6529   0.2691    18.34   0.27   False
  27.35   27.42       8.50       8.50   35.53    18.6409   0.2687    18.93   0.27   False
  27.45   27.52       8.60       8.60   35.54    18.9098   0.2709    18.80   0.27   False
  27.55   27.62       8.72       8.72   35.56    19.0624   0.2719    19.51   0.27   False
  27.65   27.72       8.84       8.84   35.56    20.1031   0.2792    19.73   0.28   False
  27.75   27.82       8.96       8.96   35.57    20.5192   0.2822    19.79   0.28   False
  27.85   27.92       9.10       9.10   35.59    21.9627   0.3176    21.39   0.31   False
  27.95   28.02       9.24       9.24   35.60    23.0435   0.3604    23.79   0.37   False
  28.05   28.12       9.39       9.39   35.60    23.8733   0.3668    23.54   0.36   False
  28.15   28.22       9.54       9.54   35.61    23.7655   0.3661    23.50   0.36   False
  28.25   28.32       9.71       9.71   35.62    23.2023   0.3616    22.80   0.36   False
  28.35   28.42       9.89       9.89   35.63     22.439   0.3555    22.14   0.35   False
  28.45   28.52      10.08      10.08   35.63    21.5063   0.3482    21.73   0.35   False
  28.55   28.62      10.28      10.28   35.64    23.2275   0.3619    23.81   0.37   False
  28.65   28.72      10.49      10.49   35.65    26.6951   0.3883    27.34   0.39   False
  28.75   28.82      10.72      10.72   35.66    36.9118   0.4562    36.02   0.45   False
  28.85   28.92      10.97      10.97   35.66    53.3177   0.5488    52.95   0.55   False
  28.95   29.02      11.23      11.23   35.67    80.6011   0.6741    80.27   0.67   False
  29.05   29.12      11.52      11.52   35.67   112.1395   0.7955   107.22   0.78   False
  29.15   29.22      11.82      11.82   35.68   130.3679   0.8576   127.56   0.85   False
  29.25   29.32      12.15      12.15   35.68   123.7527   0.8355   123.41   0.83   False
  29.35   29.42      12.51      12.51   35.69    94.9771   0.7317    94.28   0.73   False
  29.45   29.52      12.90      12.90   35.69    63.3996   0.5981    63.28   0.60   False
  29.55   29.62      13.32      13.32   35.69    40.7255   0.4794    40.93   0.48   False
  29.65   29.72      13.77      13.77   35.69    31.2987   0.4197    31.14   0.42   False
  29.75   29.82      14.28      14.28   35.70     26.588   0.3871    25.70   0.38   False
  29.85   29.92      14.82      14.82   35.70     24.657   0.3727    24.82   0.37   False
  29.95   30.02      15.43      15.43   35.70    23.5001   0.3245    23.56   0.32   False
  30.05   30.12      16.09      16.09   35.70    23.0744    0.293    22.11   0.29   False
  30.15   30.22      16.83      16.83   35.70    21.4476   0.2825    20.86   0.28   False
  30.25   30.32      17.65      17.65   35.70    20.3761   0.2754    21.06   0.28   False
  30.35   30.42      18.57      18.57   35.70    20.1005   0.2736    20.20   0.27   False
  30.45   30.52      19.60      19.60   35.70     19.922   0.2722    19.68   0.27   False
  30.55   30.62      20.76      20.76   35.70    20.4704   0.2762    20.18   0.27   False
  30.65   30.72      22.08      22.08   35.70    21.2576    0.344    21.31   0.34   False
  30.75   30.82      23.57      23.57   35.70    23.0427   0.3577    23.37   0.36   False
  30.85   30.92      25.29      25.29   35.69    23.7954   0.3637    24.51   0.37   False
  30.95   31.02      27.28      27.28   35.69     25.168   0.3741    24.71   0.37   False
  31.05   31.12      29.59      29.59   35.69    24.6809   0.3703    25.18   0.37   False
  31.15   31.22      32.30      32.30   35.69    24.0124   0.3655    24.12   0.37   False
  31.25   31.32      35.51      35.51   35.68    21.7714   0.3476    22.22   0.35   False
  31.35   31.42      39.35      39.35   35.68    20.5892   0.3387    20.27   0.34   False
  31.45   31.52      44.00      44.00   35.67    18.9395   0.3246    19.80   0.33   False
  31.55   31.62      49.70      49.70   35.67    19.4008   0.3284    18.92   0.32   False
  31.65   31.72      56.79      56.79   35.66    19.1975   0.3271    19.49   0.33   False
  31.75   31.82      65.76      65.76   35.66      19.56   0.3297    19.12   0.33   False
  31.85   31.92      77.32      77.32   35.66    19.3945   0.3287    18.57   0.32   False
  31.95   32.02      92.58      92.58   35.65    18.8091   0.3234    18.60   0.32   False
  32.05   32.12     113.86     113.86   35.65    18.3846   0.3198    18.49   0.32   False
  32.15   32.22     149.09     149.09   35.65    17.6309   0.3133    17.96   0.32   False
  32.25   32.32     228.40     228.40   35.65     18.124   0.3173    18.10   0.32   False
  32.35   32.42     445.62     445.62   35.65    17.5291   0.3121    18.03   0.32   False
  32.45   32.52    1007.73    1007.73   35.65    18.3568   0.3195    18.17   0.32   False
  32.55   32.62    2199.79    2199.79   35.65    19.0729   0.3254    19.21   0.33   False
  32.65   32.72    4154.27    4154.27   35.65    20.7462   0.2784    20.24   0.27   False
  32.75   32.82    6467.07    6467.07   35.65    20.5644   0.2768    20.00   0.27   False
  32.85   32.92    7957.73    7957.73   35.65    19.2938   0.2684    19.50   0.27   False
  32.95   33.02    7426.04    7426.04   35.65    19.3546   0.2688    19.45   0.27   False
  33.05   33.12    5278.44    5278.44   35.65    19.2922   0.2683    19.39   0.27   False
  33.15   33.22    2939.97    2939.97   35.65    20.1595   0.2744    20.95   0.28   False
  33.25   33.32    1344.91    1344.91   35.65    23.0229   0.3212    22.73   0.32   False
  33.35   33.42     564.92     564.92   35.66    27.7292   0.3944    28.56   0.40   False
  33.45   33.52     265.21     265.21   35.66    39.8014   0.4725    39.34   0.47   False
  33.55   33.62     160.12     160.12   35.66    58.5669   0.5733    59.50   0.58   False
  33.65   33.72     117.22     117.22   35.66     85.575   0.6928    86.28   0.69   False
  33.75   33.82      93.53      93.53   35.66   111.9635   0.7921   114.74   0.80   False
  33.85   33.92      77.45      77.45   35.66   124.5466   0.8359   124.42   0.83   False
  33.95   34.02      65.60      65.60   35.66   109.0087   0.7821   110.45   0.79   False
  34.05   34.12      56.55      56.55   35.66    79.5243   0.6686    79.81   0.67   False
  34.15   34.22      49.49      49.49   35.66    50.6495   0.5331    50.24   0.53   False
  34.25   34.32      43.91      43.91   35.66    34.3808   0.4397    35.39   0.44   False
  34.35   34.42      39.47      39.47   35.66    27.0346   0.3895    25.95   0.38   False
  34.45   34.52      35.96      35.96   35.66    23.1445   0.3605    23.04   0.36   False
  34.55   34.62      33.35      33.35   35.66    21.6676   0.3488    21.66   0.35   False
  34.65   34.72      32.08      32.08   35.66     21.885   0.3505    21.77   0.35   False
  34.75   34.82      33.53      33.53   35.66    21.0741   0.3439    22.05   0.35   False
  34.85   34.92      40.25      40.25   35.66    20.5871     0.34    21.28   0.35   False
  34.95   35.02      54.55      54.55   35.64      20.03   0.3354    20.16   0.34   False
  35.05   35.12      75.11      75.11   35.64    19.1212   0.3273    19.03   0.33   False
  35.15   35.22      93.43      93.43   35.64    18.7648   0.3244    18.57   0.32   False
  35.25   35.32      95.86      95.86   35.64    18.1385   0.3189    17.93   0.32   False
  35.35   35.42      79.00      79.00   35.65    18.5296   0.2662    18.31   0.26   False
  35.45   35.52      54.85      54.85   35.65    17.8749   0.2613    18.53   0.27   False
  35.55   35.62      35.34      35.34   35.65    18.5949   0.2666    18.57   0.27   False
  35.65   35.72      24.23      24.23   35.65     18.225    0.264    17.98   0.26   False
  35.75   35.82      19.22      19.22   35.65    17.8612   0.2613    18.64   0.27   False
  35.85   35.92      17.11      17.11   35.67     17.408   0.2579    18.01   0.26   False
  35.95   36.02      16.04      16.04   35.66     18.259   0.2644    17.95   0.26   False
  36.05   36.12      15.32      15.32   35.67     18.601   0.3305    18.40   0.33    True
  36.15   36.22      14.75      14.75   35.67    18.4806   0.3292    18.77   0.33    True
  36.25   36.32      14.28      14.28   35.68    18.3423   0.3281    18.90   0.33    True
  36.35   36.42      13.87      13.87   35.68    18.6893   0.3311    18.59   0.33    True
  36.45   36.52      13.52      13.52   35.69    18.0693   0.3256    18.47   0.33    True
  36.55   36.62      13.20      13.20   35.70    18.0735   0.3258    18.17   0.33    True
  36.65   36.72      12.93      12.93   35.70    18.2612   0.3273    18.19   0.33    True
  36.75   36.82      12.69      12.69   35.71    18.0591   0.3259    17.87   0.32    True
  36.85   36.92      12.47      12.47   35.73    18.3435    0.328    18.11   0.33    True
  36.95   37.02      12.28      12.28   35.74    18.4972   0.3298    18.36   0.33    True
  37.05   37.12      12.11      12.11   35.75    18.6569    0.331    18.83   0.33    True
  37.15   37.22      11.95      11.95   35.76    18.8397   0.3326    18.51   0.33    True
  37.25   37.32      11.82      11.82   35.76    18.3046   0.3281    18.48   0.33    True
  37.35   37.42      11.69      11.69   35.77    18.7755   0.3319    18.60   0.33    True
  37.45   37.52      11.59      11.59   35.78    18.6894   0.3314    18.58   0.33    True
  37.55   37.62      11.49      11.49   35.78    19.2651   0.3364    19.28   0.34    True
  37.65   37.72      11.41      11.41   35.79    19.0876   0.3347    18.80   0.33    True
  37.75   37.82      11.33      11.33   35.80    18.9393   0.3332    18.21   0.33    True
  37.85   37.92      11.27      11.27   35.80    18.7951    0.332    19.19   0.33    True
  37.95   38.02      11.21      11.21   35.81    18.5948    0.302    18.51   0.30    True
  38.05   38.12      11.16      11.16   35.81    19.0381   0.2835    18.76   0.28    True
  38.15   38.22      11.12      11.12   35.82    18.6811   0.2804    19.01   0.28    True
  38.25   38.32      11.09      11.09   35.82     18.739   0.2813    19.04   0.28    True
  38.35   38.42      11.07      11.07   35.83    18.7857   0.2815    19.10   0.28    True
  38.45   38.52      11.05      11.05   35.83    18.9621   0.2827    18.95   0.28    True
  38.55   38.62      11.03      11.03   35.83    19.2671   0.2852    19.06   0.28    True
  38.65   38.72      11.03      11.03   35.83    19.0446   0.3141    19.55   0.32    True
  38.75   38.82      11.02      11.02   35.84    19.0858   0.3578    19.12   0.36    True
  38.85   38.92      11.03      11.03   35.84    19.3801   0.3604    18.88   0.36    True
  38.95   39.02      11.04      11.04   35.84    19.4895   0.3615    19.70   0.36    True
  39.05   39.12      11.05      11.05   35.84    19.4037   0.3607    19.20   0.36    True
  39.15   39.22      11.07      11.07   35.84    19.6419   0.3629    19.39   0.36    True
  39.25   39.32      11.09      11.09   35.84    19.3039   0.3598    19.24   0.36    True
  39.35   39.42      11.12      11.12   35.84    19.6888   0.3635    19.66   0.36    True
  39.45   39.52      11.15      11.15   35.84    19.1023   0.3581    18.85   0.36    True
  39.55   39.62      11.19      11.19   35.84     18.536   0.3527    19.80   0.36    True
  39.65   39.72      11.23      11.23   35.83     19.036   0.3576    18.65   0.35    True
  39.75   39.82      11.27      11.27   35.83    18.9275   0.3563    18.61   0.35    True
  39.85   39.92      11.32      11.32   35.83    19.4285   0.3611    19.01   0.36    True
  39.95   40.02      11.37      11.37   35.82    19.2126   0.3592    19.18   0.36    True
  40.05   40.12      11.43      11.43   35.82    19.6939   0.3636    18.93   0.36    True
  40.15   40.22      11.49      11.49   35.81    19.2034    0.359    18.23   0.35    True
  40.25   40.32      11.56      11.56   35.81    19.1045    0.358    19.03   0.36    True
  40.35   40.42      11.63      11.63   35.80    19.4734   0.3614    19.02   0.36    True
  40.45   40.52      11.70      11.70   35.80     19.758   0.3639    19.51   0.36    True
  40.55   40.62      11.78      11.78   35.79    18.8101   0.3551    19.57   0.36    True
  40.65   40.72      11.86      11.86   35.78    19.4937   0.3615    19.64   0.36    True
  40.75   40.82      11.95      11.95   35.78    18.9374   0.2838    18.04   0.28    True
  40.85   40.92      12.04      12.04   35.77    18.9915   0.2842    18.89   0.28    True
  40.95   41.02      12.13      12.13   35.76    18.7129   0.2822    18.54   0.28    True
  41.05   41.12      12.23      12.23   35.75    18.3151   0.2792    18.96   0.28    True
  41.15   41.22      12.33      12.33   35.74    18.7462   0.2824    18.95   0.28    True
  41.25   41.32      12.44      12.44   35.73    18.2322   0.2785    18.70   0.28    True
  41.35   41.42      12.56      12.56   35.72    18.8905   0.3127    18.95   0.31    True
  41.45   41.52      12.68      12.68   35.71     19.455   0.3581    19.01   0.35    True
  41.55   41.62      12.80      12.80   35.70    18.9028   0.3529    19.48   0.36    True
  41.65   41.72      12.93      12.93   35.69    20.7092   0.3696    19.73   0.36    True
  41.75   41.82      13.07      13.07   35.68    19.6496   0.3597    20.44   0.37    True
  41.85   41.92      13.21      13.21   35.67    21.1844   0.3737    21.24   0.37    True
  41.95   42.02      13.35      13.35   35.65    20.6907   0.3693    20.84   0.37    True
  42.05   42.12      13.51      13.51   35.64    20.6764   0.3693    20.80   0.37    True
  42.15   42.22      13.67      13.67   35.63    19.9327   0.3629    20.93   0.37    True
  42.25   42.32      13.84      13.84   35.61    19.8134   0.3613    19.97   0.36    True
  42.35   42.42      14.01      14.01   35.60    19.7077   0.3608    19.87   0.36    True
  42.45   42.52      14.19      14.19   35.58    18.9228   0.3533    19.79   0.36    True
  42.55   42.62      14.38      14.38   35.57    18.9492   0.3535    19.11   0.35    True
  42.65   42.72      14.58      14.58   35.55    18.6544   0.3511    18.86   0.35    True
  42.75   42.82      14.79      14.79   35.54     17.965   0.3438    18.97   0.35    True
  42.85   42.92      15.01      15.01   35.52    18.9286   0.3536    18.08   0.34    True
  42.95   43.02      15.24      15.24   35.50    18.8838   0.3529    18.57   0.35    True
  43.05   43.12      15.47      15.47   35.49    18.4428   0.3486    18.98   0.35    True
  43.15   43.22      15.72      15.72   35.47    18.0528    0.345    18.15   0.35    True
  43.25   43.32      15.99      15.99   35.45    18.6358   0.3502    18.08   0.34    True
  43.35   43.42      16.26      16.26   35.43    18.0351   0.3059    17.57   0.30    True
  43.45   43.52      16.55      16.55   35.42    18.1863    0.279    18.45   0.28    True
  43.55   43.62      16.85      16.85   35.40    18.5735   0.2816    18.05   0.28    True
  43.65   43.72      17.17      17.17   35.38    18.4615   0.2811    17.57   0.27    True
  43.75   43.82      17.50      17.50   35.36    18.3277   0.2799    18.60   0.28    True
  43.85   43.92      17.86      17.86   35.34     18.459    0.281    17.79   0.28    True
  43.95   44.02      18.23      18.23   35.32     17.869   0.2765    17.96   0.28    True
  44.05   44.12      18.62      18.62   35.30    17.8448   0.3269    18.14   0.33    True
  44.15   44.22      19.03      19.03   35.28    18.0055   0.3284    18.14   0.33    True
  44.25   44.32      19.47      19.47   35.27    18.3453   0.3313    17.32   0.32    True
  44.35   44.42      19.94      19.94   35.25    17.6112   0.3246    18.15   0.33    True
  44.45   44.52      20.43      20.43   35.23    18.0373   0.3285    17.96   0.33    True
  44.55   44.62      20.96      20.96   35.21     18.214   0.3301    18.41   0.33    True
  44.65   44.72      21.51      21.51   35.20    17.7628    0.326    17.33   0.32    True
  44.75   44.82      22.11      22.11   35.18     18.095   0.3293    18.54   0.33    True
  44.85   44.92      22.74      22.74   35.16    18.3447   0.3316    18.11   0.33    True
  44.95   45.02      23.42      23.42   35.14    18.1262   0.3295    18.72   0.33    True
  45.05   45.12      24.15      24.15   35.13    19.9718   0.3461    19.26   0.34    True
  45.15   45.22      24.93      24.93   35.11    19.9175   0.3453    19.89   0.34    True
  45.25   45.32      25.77      25.77   35.09    20.9235    0.354    20.34   0.35    True
  45.35   45.42      26.68      26.68   35.08    20.9129    0.354    20.64   0.35    True
  45.45   45.52      27.65      27.65   35.06    21.0052   0.3547    20.78   0.35    True
  45.55   45.62      28.71      28.71   35.04    19.9023   0.3453    19.76   0.34    True
  45.65   45.72      29.87      29.87   35.03    19.1658   0.3388    19.32   0.34    True
  45.75   45.82      31.12      31.12   35.01    18.2853   0.3308    19.01   0.34    True
  45.85   45.92      32.49      32.49   35.00    18.4311   0.3321    18.81   0.34    True
  45.95   46.02      33.99      33.99   34.98    18.2613   0.3306    18.49   0.33    True
  46.05   46.12      35.64      35.64   34.96    17.4714   0.3233    18.25   0.33   False
  46.15   46.22      37.46      37.46   34.95    18.0765   0.2667    17.91   0.27   False
  46.25   46.32      39.47      39.47   34.93    18.0008   0.2662    17.74   0.26   False
  46.35   46.42      41.71      41.71   34.91    17.4202   0.2619    17.50   0.26   False
  46.45   46.52      44.21      44.21   34.90    17.8675   0.2653    17.70   0.26   False
  46.55   46.62      47.01      47.01   34.88    18.0023   0.2662    17.59   0.26   False
  46.65   46.72      50.17      50.17   34.86    17.8653   0.2652    17.98   0.27   False
  46.75   46.82      53.74      53.74   34.85    18.0001   0.2922    18.51   0.30   False
  46.85   46.92      57.82      57.82   34.83    18.1253   0.3284    18.21   0.33   False
  46.95   47.02      62.50      62.50   34.81    17.9598   0.3268    18.23   0.33   False
  47.05   47.12      67.90      67.90   34.79    18.4063   0.3311    18.31   0.33   False
  47.15   47.22      74.18      74.18   34.78    18.5439   0.3319    18.34   0.33   False
  47.25   47.32      81.55      81.55   34.76    18.6986   0.3336    18.91   0.34   False
  47.35   47.42      90.28      90.28   34.74    18.5744   0.3324    18.62   0.33   False
  47.45   47.52     100.73     100.73   34.72    18.6626   0.3333    18.28   0.33   False
  47.55   47.62     113.37     113.37   34.70    18.7308   0.3342    18.80   0.33   False
  47.65   47.72     128.86     128.86   34.68    18.7636    0.334    18.71   0.33   False
  47.75   47.82     148.12     148.12   34.66    19.1837   0.3382    19.09   0.34   False
  47.85   47.92     172.46     172.46   34.65     19.319   0.3392    19.87   0.34   False
  47.95   48.02     203.79     203.79   34.63    20.8601   0.3524    20.33   0.35   False
  48.05   48.12     245.22     245.22   34.61    22.4142   0.3656    22.17   0.36   False
  48.15   48.22     303.23     303.23   34.59    25.3445    0.388    26.28   0.39   False
  48.25   48.32     396.96     396.96   34.57    31.7549   0.4352    33.63   0.45   False
  48.35   48.42     590.15     590.15   34.55    44.5196   0.5148    45.48   0.52   False
  48.45   48.52    1064.62    1064.62   34.53     66.943    0.631    67.26   0.63   False
  48.55   48.62    2197.41    2197.41   34.51    92.7624    0.743    93.75   0.75   False
  48.65   48.72    4460.91    4460.91   34.49   108.1256   0.8015   108.33   0.80   False
  48.75   48.82    7948.42    7948.42   34.47    99.7366   0.7704    99.93   0.77   False
  48.85   48.92   11721.79   11721.79   34.45    69.7086   0.5277    70.81   0.53   False
  48.95   49.02   13649.58   13649.58   34.43    45.5842   0.4265    46.15   0.43   False
  49.05   49.12   12126.78   12126.78   34.41    32.7534   0.3617    32.74   0.36   False
  49.15   49.22    8456.94    8456.94   34.39    26.2691   0.3238    26.66   0.33   False
  49.25   49.32    4857.07    4857.07   34.37    22.8653   0.3023    22.33   0.30   False
  49.35   49.42    2427.24    2427.24   34.35    20.0879   0.2832    20.36   0.28   False
  49.45   49.52    1171.81    1171.81   34.33    19.6708    0.342    19.06   0.34   False
  49.55   49.62     634.23     634.23   34.29    18.5856   0.3325    18.80   0.33   False
  49.65   49.72     415.19     415.19   34.27    19.0105    0.336    18.07   0.33   False
  49.75   49.82     311.79     311.79   34.25     18.401   0.3308    18.74   0.33   False
  49.85   49.92     249.94     249.94   34.24    18.8298   0.3345    18.50   0.33   False
  49.95   50.02     206.83     206.83   34.22    18.4335    0.331    18.55   0.33   False
  50.05   50.12     174.76     174.76   34.20     18.313     0.33    17.76   0.32   False
  50.15   50.22     150.16     150.16   34.19    18.1883   0.3287    17.59   0.32   False
  50.25   50.32     130.90     130.90   34.18    17.9291   0.3268    17.32   0.32   False
  50.35   50.42     115.56     115.56   34.16    17.8675   0.3258    17.51   0.32   False
  50.45   50.52     103.15     103.15   34.17    16.8364   0.3167    17.02   0.32   False
  50.55   50.62      92.98      92.98   34.14    17.3871   0.3216    17.40   0.32   False
  50.65   50.72      84.57      84.57   34.13    17.1029   0.3189    16.98   0.32   False
  50.75   50.82      77.53      77.53   34.12    17.5164   0.3231    17.91   0.33   False
  50.85   50.92      71.61      71.61   34.12    17.8596   0.3257    18.02   0.33   False
  50.95   51.02      66.57      66.57   34.11    18.0323   0.3276    18.38   0.33   False
  51.05   51.12      62.27      62.27   34.11    18.5979   0.3326    18.79   0.33    True
  51.15   51.22      58.58      58.58   34.10    18.3771   0.3305    18.56   0.33    True
  51.25   51.32      55.40      55.40   34.10    19.4454   0.3398    18.96   0.34    True
  51.35   51.42      52.64      52.64   34.09     19.959   0.3444    19.40   0.34    True
  51.45   51.52      50.24      50.24   34.11    19.3675   0.3392    20.29   0.35    True
  51.55   51.62      48.15      48.15   34.11    20.2974   0.2838    20.06   0.28    True
  51.65   51.72      46.33      46.33   34.11    19.4106   0.2773    19.67   0.28    True
  51.75   51.82      44.75      44.75   34.11    18.7903   0.2731    18.93   0.27    True
  51.85   51.92      43.36      43.36   34.10    18.9818   0.2744    18.69   0.27    True
  51.95   52.02      42.15      42.15   34.10    18.1362   0.2682    18.59   0.27    True
  52.05   52.12      41.10      41.10   34.10    18.3651   0.2699    17.97   0.27    True
  52.15   52.22      40.18      40.18   34.10    17.8783   0.2928    18.17   0.29    True
  52.25   52.32      39.39      39.39   34.10    18.6387    0.336    17.71   0.33    True
  52.35   52.42      38.72      38.72   34.10    18.1949   0.3317    17.91   0.33    True
  52.45   52.52      38.14      38.14   34.10    18.3237    0.333    18.49   0.33    True
  52.55   52.62      37.66      37.66   34.10    18.1616   0.3315    18.95   0.34    True
  52.65   52.72      37.27      37.27   34.10    18.1634   0.3315    18.46   0.33    True
  52.75   52.82      36.95      36.95   34.10     18.022   0.3304    18.54   0.33    True
  52.85   52.92      36.71      36.71   34.10    18.8212   0.3374    17.92   0.33    True
  52.95   53.02      36.54      36.54   34.11    18.3761   0.3339    18.50   0.33    True
  53.05   53.12      36.43      36.43   34.10    17.6598   0.3269    17.79   0.33    True
  53.15   53.22      36.39      36.39   34.08    17.6335    0.327    18.45   0.33    True
  53.25   53.32      36.41      36.41   34.09    17.2427   0.3232    17.00   0.32    True
  53.35   53.42      36.48      36.48   34.09    17.7042   0.3274    17.33   0.32    True
  53.45   53.52      36.62      36.62   34.10    16.8398   0.3196    17.33   0.32    True
  53.55   53.62      36.80      36.80   34.11    16.7807   0.3186    17.50   0.32    True
  53.65   53.72      37.05      37.05   34.12    16.7663   0.3187    17.74   0.33    True
  53.75   53.82      37.35      37.35   34.13    17.7001   0.3274    17.08   0.32    True
  53.85   53.92      37.70      37.70   34.14    17.2037   0.3227    17.59   0.33    True
  53.95   54.02      38.12      38.12   34.17    17.0351    0.321    16.94   0.32    True
  54.05   54.12      38.59      38.59   34.19    16.9821   0.3205    16.83   0.32    True
  54.15   54.22      39.12      39.12   34.19    17.3543    0.324    17.65   0.33    True
  54.25   54.32      39.71      39.71   34.21    18.0697    0.277    18.32   0.28    True
  54.35   54.42      40.37      40.37   34.23    18.1225   0.2772    18.68   0.28    True
  54.45   54.52      41.10      41.10   34.26    18.5753   0.2809    18.17   0.28    True
  54.55   54.62      41.90      41.90   34.28    17.8902   0.2756    18.07   0.28    True
  54.65   54.72      42.78      42.78   34.31     18.568   0.2808    17.96   0.28    True
  54.75   54.82      43.74      43.74   34.33    18.7025   0.2818    18.33   0.28    True
  54.85   54.92      44.79      44.79   34.36    18.9372   0.3122    18.59   0.31    True
  54.95   55.02      45.94      45.94   34.40    18.8953   0.3512    19.31   0.35    True
  55.05   55.12      47.19      47.19   34.45    18.9986   0.3519    19.48   0.36    True
  55.15   55.22      48.56      48.56   34.48    19.9328   0.3606    19.97   0.36    True
  55.25   55.32      50.05      50.05   34.51    20.5535   0.3661    20.06   0.36    True
  55.35   55.42      51.69      51.69   34.54    19.8122   0.3594    19.92   0.36    True
  55.45   55.52      53.48      53.48   34.57     20.515   0.3659    19.89   0.36    True
  55.55   55.62      55.44      55.44   34.60    19.2887   0.3547    19.18   0.35    True
  55.65   55.72      57.60      57.60   34.64     19.434   0.3565    18.82   0.35    True
  55.75   55.82      59.97      59.97   34.67    18.3303   0.3457    18.66   0.35    True
  55.85   55.92      62.59      62.59   34.70    18.6729   0.3493    18.22   0.34    True
  55.95   56.02      65.50      65.50   34.73    18.0498   0.3433    17.82   0.34    True
  56.05   56.12      68.72      68.72   34.76    17.9078   0.3419    18.01   0.34   False
  56.15   56.22      72.31      72.31   34.79    18.5103   0.3479    17.75   0.34   False
  56.25   56.32      76.33      76.33   34.82    17.7089   0.3398    17.77   0.34   False
  56.35   56.42      80.85      80.85   34.85    17.7907   0.3409    17.24   0.33   False
  56.45   56.52      85.94      85.94   34.88    17.7722   0.3406    18.38   0.35   False
  56.55   56.62      91.73      91.73   34.91    18.0536   0.3432    17.71   0.34   False
  56.65   56.72      98.33      98.33   34.94    17.9571   0.3421    18.54   0.35   False
  56.75   56.82     105.91     105.91   34.97    19.4714   0.3563    18.44   0.35   False
  56.85   56.92     114.68     114.68   34.99    19.4159   0.3558    19.22   0.35   False
  56.95   57.02     124.89     124.89   35.02    18.9691   0.2842    19.23   0.29   False
  57.05   57.12     136.88     136.88   35.05     19.399   0.2871    18.47   0.28   False
  57.15   57.22     151.11     151.11   35.07    18.9567   0.2841    19.04   0.28   False
  57.25   57.32     168.14     168.14   35.10     19.963   0.2914    20.11   0.29   False
  57.35   57.42     188.77     188.77   35.13    22.1279   0.3069    21.92   0.30   False
  57.45   57.52     214.06     214.06   35.15    23.9572   0.3193    24.33   0.32   False
  57.55   57.62     245.51     245.51   35.17    28.9556   0.3874    28.91   0.39   False
  57.65   57.72     285.27     285.27   35.20    35.9657    0.488    36.19   0.49   False
  57.75   57.82     336.76     336.76   35.22    40.8863   0.5199    40.89   0.52   False
  57.85   57.92     406.34     406.34   35.24    41.6921   0.5253    41.83   0.53   False
  57.95   58.02     509.85     509.85   35.27    35.7007    0.486    36.04   0.49   False
  58.05   58.12     694.08     694.08   35.29    29.2409   0.4398    29.83   0.44   False
  58.15   58.22    1090.39    1090.39   35.31    25.6448   0.4121    25.18   0.41   False
  58.25   58.32    1994.27    1994.27   35.33    22.0345   0.3818    21.91   0.38   False
  58.35   58.42    3869.56    3869.56   35.35    20.6564   0.3702    21.46   0.38   False
  58.45   58.52    7077.73    7077.73   35.37    20.6191   0.3693    20.12   0.36   False
  58.55   58.62   11304.47   11304.47   35.39    18.8695   0.3537    19.44   0.36   False
  58.65   58.72   15081.19   15081.19   35.41    18.4825   0.3498    18.58   0.35   False
  58.75   58.82   16107.41   16107.41   35.42    18.5635   0.3506    18.52   0.35   False
  58.85   58.92   13564.22   13564.22   35.44    19.0097   0.3551    18.42   0.35   False
  58.95   59.02    9387.92    9387.92   35.46    18.6391   0.3511    17.76   0.34   False
  59.05   59.12    5598.41    5598.41   35.47    18.0012   0.3453    18.19   0.35   False
  59.15   59.22    3020.91    3020.91   35.49    18.8169    0.353    18.25   0.35   False
  59.25   59.32    1601.70    1601.70   35.50    17.7384   0.3426    18.25   0.35   False
  59.35   59.42     930.63     930.63   35.52    18.3486   0.3483    18.25   0.35   False
  59.45   59.52     628.72     628.72   35.53    18.5882   0.3507    18.18   0.35   False
  59.55   59.62     478.58     478.58   35.54    18.1485   0.3465    18.04   0.34   False
  59.65   59.72     388.22     388.22   35.55    18.9865   0.2859    19.67   0.29   False
  59.75   59.82     325.25     325.25   35.56    19.8212   0.2919    19.74   0.29   False
  59.85   59.92     278.25     278.25   35.57    21.6475   0.3053    21.75   0.31   False
  59.95   60.02     242.07     242.07   35.58    23.7816   0.3199    24.69   0.33   False
  60.05   60.12     213.67     213.67   35.59    29.0089   0.3533    29.23   0.35   False
  60.15   60.22     191.04     191.04   35.60    38.0419   0.4046    36.41   0.40   False
  60.25   60.32     172.76     172.76   35.61    49.2579   0.4999    50.67   0.51   False
  60.35   60.42     157.81     157.81   35.61    77.7873    0.693    77.21   0.69   False
  60.45   60.52     145.48     145.48   35.62   124.2599   0.8752   120.81   0.86   False
  60.55   60.62     135.21     135.21   35.63   173.3997   1.0344   172.02   1.03   False
  60.65   60.72     126.61     126.61   35.63   196.0854   1.0997   194.89   1.09   False
  60.75   60.82     119.37     119.37   35.63   170.8039   1.0264   170.37   1.02   False
  60.85   60.92     113.25     113.25   35.64   122.1292   0.8683   117.77   0.85   False
  60.95   61.02     108.06     108.06   35.64    75.4154    0.682    74.34   0.68   False
  61.05   61.12     103.65     103.65   35.64    49.5881   0.5538    48.90   0.55   False
  61.15   61.22      99.90      99.90   35.64    36.4621   0.4742    36.16   0.47   False
  61.25   61.32      96.72      96.72   35.64    29.1029   0.4241    28.88   0.42   False
  61.35   61.42      94.04      94.04   35.64    23.9865   0.3848    24.33   0.39   False
  61.45   61.52      91.78      91.78   35.64    22.4368   0.3721    21.79   0.37   False
  61.55   61.62      89.89      89.89   35.64    21.6566    0.366    21.81   0.37   False
  61.65   61.72      88.33      88.33   35.64    21.6701   0.3656    21.34   0.36   False
  61.75   61.82      87.07      87.07   35.64    22.1697   0.3701    22.57   0.37   False
  61.85   61.92      86.07      86.07   35.63    23.9043   0.3842    23.56   0.38   False
  61.95   62.02      85.32      85.32   35.63    24.2766   0.3871    24.87   0.39   False
  62.05   62.12      84.78      84.78   35.62    26.8228   0.4066    26.94   0.41   False
  62.15   62.22      84.44      84.44   35.62    28.2223   0.4172    28.91   0.42   False
  62.25   62.32      84.29      84.29   35.61    29.7993   0.3868    29.57   0.38   False
  62.35   62.42      84.31      84.31   35.61    27.9316   0.3441    27.33   0.34   False
  62.45   62.52      84.49      84.49   35.60    24.6373   0.3227    25.06   0.33   False
  62.55   62.62      84.83      84.83   35.59    22.6739   0.3101    22.59   0.31   False
  62.65   62.72      85.32      85.32   35.58    20.9328   0.2977    20.92   0.30   False
  62.75   62.82      85.96      85.96   35.58    19.9577   0.2906    19.98   0.29   False
  62.85   62.92      86.73      86.73   35.57    19.3709   0.2865    19.71   0.29   False
  62.95   63.02      87.64      87.64   35.56    20.0949   0.3209    19.11   0.31   False
  63.05   63.12      88.69      88.69   35.55    19.4718   0.3551    19.81   0.36    True
  63.15   63.22      89.87      89.87   35.54    20.0853   0.3606    19.09   0.35    True
  63.25   63.32      91.18      91.18   35.53    19.2459    0.353    20.14   0.36    True
  63.35   63.42      92.64      92.64   35.51    19.2019   0.3526    19.31   0.35    True
  63.45   63.52      94.23      94.23   35.50    19.7038   0.3571    19.88   0.36    True
  63.55   63.62      95.96      95.96   35.49    19.1833   0.3524    19.66   0.36    True
  63.65   63.72      97.83      97.83   35.48    19.5491    0.356    18.95   0.35    True
  63.75   63.82      99.85      99.85   35.47    18.7689   0.3488    18.83   0.35    True
  63.85   63.92     102.03     102.03   35.45    18.7858   0.3489    18.91   0.35    True
  63.95   64.02     104.37     104.37   35.44    18.3224   0.3448    18.24   0.34    True
  64.05   64.12     106.87     106.87   35.43    18.5481   0.3466    17.84   0.34    True
  64.15   64.22     109.55     109.55   35.41    17.8979   0.3406    18.49   0.35    True
  64.25   64.32     112.42     112.42   35.40    17.9742   0.3414    17.39   0.33    True
  64.35   64.42     115.48     115.48   35.39    18.1994   0.3434    18.20   0.34    True
  64.45   64.52     118.75     118.75   35.37    17.8943   0.3406    18.04   0.34    True
  64.55   64.62     122.24     122.24   35.36    18.5635   0.3468    18.41   0.34    True
  64.65   64.72     125.96     125.96   35.35     18.855   0.3494    18.39   0.34    True
  64.75   64.82     129.94     129.94   35.34    18.7802   0.3486    18.96   0.35    True
  64.85   64.92     134.19     134.19   35.32    19.4895   0.3552    19.78   0.36    True
  64.95   65.02     138.73     138.73   35.31    20.0693   0.3232    19.75   0.32    True
  65.05   65.12     143.59     143.59   35.29    19.9487   0.2946    19.72   0.29    True
  65.15   65.22     148.78     148.78   35.27    19.6391   0.2922    19.50   0.29    True
  65.25   65.32     154.35     154.35   35.27    18.0649   0.2805    18.63   0.28    True
  65.35   65.42     160.32     160.32   35.26     18.353   0.2827    18.56   0.28    True
  65.45   65.52     166.73     166.73   35.25    17.8162   0.2784    17.89   0.28    True
  65.55   65.62     173.62     173.62   35.25    17.7132   0.2777    17.58   0.28    True
  65.65   65.72     181.05     181.05   35.24    17.9548   0.3082    17.53   0.30    True
  65.75   65.82     189.05     189.05   35.24    17.8624   0.3467    17.25   0.34    True
  65.85   65.92     197.71     197.71   35.23    18.0314   0.3484    17.63   0.34    True
  65.95   66.02     207.08     207.08   35.24     17.162     0.34    17.85   0.35    True
  66.05   66.12     217.25     217.25   35.23    17.7877   0.3459    17.42   0.34    True
  66.15   66.22     228.31     228.31   35.23    18.8756   0.3565    17.01   0.34    True
  66.25   66.32     240.38     240.38   35.23    18.0367   0.3483    17.97   0.35    True
  66.35   66.42     253.57     253.57   35.23    17.5124   0.3437    17.74   0.35    True
  66.45   66.52     268.05     268.05   35.24    18.1382   0.3497    17.62   0.34    True
  66.55   66.62     283.99     283.99   35.25    17.9298   0.3475    18.03   0.35    True
  66.65   66.72     301.59     301.59   35.24    18.2414   0.3509    18.13   0.35    True
  66.75   66.82     321.12     321.12   35.26    18.8593   0.3564    18.28   0.35    True
  66.85   66.92     342.87     342.87   35.25    18.5522   0.3536    17.98   0.35    True
  66.95   67.02     367.21     367.21   35.27    17.8491   0.3469    17.48   0.34    True
  67.05   67.12     394.61     394.61   35.29    18.0927    0.349    17.38   0.34    True
  67.15   67.22     425.62     425.62   35.31    17.7023   0.3456    18.07   0.35    True
  67.25   67.32     460.95     460.95   35.33    17.5867   0.3441    17.91   0.35    True
  67.35   67.42     501.49     501.49   35.35    17.4603   0.3428    18.27   0.35    True
  67.45   67.52     548.37     548.37   35.37    17.9923   0.3481    17.90   0.35    True
  67.55   67.62     603.07     603.07   35.40    17.3671   0.3417    17.81   0.35    True
  67.65   67.72     667.52     667.52   35.42    17.8104   0.3113    17.94   0.31    True
  67.75   67.82     744.38     744.38   35.47    17.4317    0.282    17.57   0.28    True
  67.85   67.92     837.51     837.51   35.48     17.983   0.2864    17.59   0.28    True
  67.95   68.02     953.07     953.07   35.51    18.1943   0.2882    17.95   0.29    True
  68.05   68.12    1102.94    1102.94   35.55    18.3299   0.2892    18.17   0.29    True
  68.15   68.22    1315.07    1315.07   35.58    18.3035   0.2891    18.87   0.29    True
  68.25   68.32    1661.29    1661.29   35.62    19.1878    0.296    19.17   0.30    True
  68.35   68.42    2314.84    2314.84   35.66    18.8307   0.3604    19.17   0.36    True
  68.45   68.52    3622.66    3622.66   35.69    19.6319   0.3678    18.67   0.36    True
  68.55   68.62    6099.55    6099.55   35.74    19.2126   0.3639    18.92   0.36    True
  68.65   68.72   10181.53   10181.53   35.78    19.5502   0.3672    19.09   0.36    True
  68.75   68.82   15705.19   15705.19   35.85    19.2032   0.3636    19.11   0.36    True
  68.85   68.92   21417.89   21417.89   35.89    20.3045   0.3742    19.64   0.37    True
  68.95   69.02   24969.91   24969.91   35.92    19.4791   0.3663    19.96   0.37    True
  69.05   69.12   24236.79   24236.79   35.96    19.9673   0.3714    20.42   0.37    True
  69.15   69.22   19880.84   19880.84   36.00    20.2889   0.3742    19.81   0.37    True
  69.25   69.32   14528.97   14528.97   36.04    20.4328   0.3754    19.58   0.37    True
  69.35   69.42   10043.25   10043.25   36.07    19.8784   0.3706    19.56   0.37    True
  69.45   69.52    7101.84    7101.84   36.11    19.2329   0.3642    19.35   0.36    True
  69.55   69.62    5710.39    5710.39   36.14    19.4497   0.3663    19.55   0.37    True
  69.65   69.72    5727.17    5727.17   36.18    19.0547   0.3627    19.73   0.37    True
  69.75   69.82    7351.35    7351.35   36.21    20.0745   0.3719    19.57   0.37    True
  69.85   69.92   11471.45   11471.45   36.23    20.3484   0.3749    19.65   0.37    True
  69.95   70.02   19590.29   19590.29   36.26    21.2735   0.3829    21.08   0.38    True
  70.05   70.12   32923.00   32923.00   36.29     21.872   0.3882    22.18   0.39    True
  70.15   70.22   50712.74   50712.74   36.31    23.8282   0.4054    24.22   0.41    True
  70.25   70.32   68772.63   68772.63   36.33    25.6356   0.4201    25.84   0.42    True
  70.35   70.42   79590.57   79590.57   36.35    29.0493    0.401    29.92   0.41    True
  70.45   70.52   76559.66   76559.66   36.37    34.2689   0.3979    34.28   0.40    True
  70.55   70.62   61823.36   61823.36   36.39      41.11   0.4358    41.39   0.44    True
  70.65   70.72   43643.65   43643.65   36.40    51.2755   0.4869    51.60   0.49    True
  70.75   70.82   27901.96   27901.96   36.42     65.228   0.5491    65.51   0.55    True
  70.85   70.92   16697.82   16697.82   36.43    85.7548   0.6297    87.97   0.64    True
  70.95   71.02    9821.30    9821.30   36.44    122.376   0.7522   121.20   0.75    True
  71.05   71.12    6061.69    6061.69   36.44   166.8115   1.0881   168.58   1.09    True
  71.15   71.22    4130.42    4130.42   36.45   242.6139   1.3116   241.81   1.31    True
  71.25   71.32    3112.78    3112.78   36.45    321.809   1.5109   320.75   1.51    True
  71.35   71.42    2511.24    2511.24   36.45   360.5852   1.5996   362.37   1.60    True
  71.45   71.52    2103.58    2103.58   36.45   339.7414   1.5515   337.32   1.54    True
  71.55   71.62    1800.84    1800.84   36.45   270.8845   1.3863   270.55   1.38    True
  71.65   71.72    1566.00    1566.00   36.44   189.9086   1.1602   189.07   1.16    True
  71.75   71.82    1380.25    1380.25   36.43   126.1852    0.947   126.90   0.95    True
  71.85   71.92    1231.69    1231.69   36.42    86.8116   0.7852    86.13   0.78    True
  71.95   72.02    1111.97    1111.97   36.41    62.9487   0.6683    62.00   0.66    True
  72.05   72.12    1014.99    1014.99   36.40    47.7069   0.5824    47.47   0.58    True
  72.15   72.22     936.29     936.29   36.38    37.3676   0.5149    38.64   0.52    True
  72.25   72.32     872.64     872.64   36.37    32.1401   0.4777    32.37   0.48    True
  72.35   72.42     821.68     821.68   36.35    29.0275   0.4541    29.37   0.46    True
  72.45   72.52     781.74     781.74   36.32    27.5636   0.4421    27.53   0.44    True
  72.55   72.62     751.64     751.64   36.30    28.9132   0.4533    28.31   0.45    True
  72.65   72.72     730.69     730.69   36.27    30.2679   0.4634    29.62   0.46    True
  72.75   72.82     718.53     718.53   36.25     36.393   0.5079    36.93   0.51    True
  72.85   72.92     715.20     715.20   36.22    48.6838   0.5878    48.73   0.59    True
  72.95   73.02     721.10     721.10   36.19    70.6159   0.7073    69.66   0.70    True
  73.05   73.12     737.10     737.10   36.15   113.3972    0.897   114.83   0.90    True
  73.15   73.22     764.62     764.62   36.12   174.9881   0.8818   175.16   0.88    True
  73.25   73.32     805.96     805.96   36.08   225.3137   1.0011   224.23   1.00    True
  73.35   73.42     864.89     864.89   36.04   234.4981   1.0211   231.06   1.01    True
  73.45   73.52     948.27     948.27   36.00   194.6722   0.9305   192.51   0.92    True
  73.55   73.62    1070.49    1070.49   35.96   134.2178    0.773   132.09   0.77    True
  73.65   73.72    1265.82    1265.82   35.92    81.3336   0.6013    83.03   0.61    True
  73.75   73.82    1616.82    1616.82   35.87     51.341   0.5771    51.77   0.58    True
  73.85   73.92    2304.43    2304.43   35.82    36.5211   0.4866    37.03   0.49    True
  73.95   74.02    3658.76    3658.76   35.77    29.6937   0.4387    29.94   0.44    True
  74.05   74.12    6132.40    6132.40   35.72    25.8071   0.4092    25.09   0.40    True
  74.15   74.22   10084.69   10084.69   35.67    23.0048   0.3859    23.38   0.39    True
  74.25   74.32   15373.97   15373.97   35.62     21.161   0.3704    21.15   0.37    True
  74.35   74.42   20985.90   20985.90   35.56     19.249   0.3533    19.81   0.36    True
  74.45   74.52   24997.71   24997.71   35.51    18.9164   0.3503    18.62   0.35    True
  74.55   74.62   25345.96   25345.96   35.45    18.5463   0.3472    19.25   0.35    True
  74.65   74.72   21819.35   21819.35   35.39    17.9917   0.3414    18.05   0.34    True
  74.75   74.82   16454.02   16454.02   35.33    18.0002    0.342    18.06   0.34    True
  74.85   74.92   11260.43   11260.43   35.27    17.8335   0.3402    18.03   0.34    True
  74.95   75.02    7191.20    7191.20   35.21      17.73   0.3391    17.69   0.34    True
  75.05   75.12    4429.55    4429.55   35.14    18.6082   0.3478    18.12   0.34    True
  75.15   75.22    2760.91    2760.91   35.08    18.9064   0.3498    18.17   0.34    True
  75.25   75.32    1836.48    1836.48   35.01    18.7869   0.3494    18.91   0.35    True
  75.35   75.42    1341.54    1341.54   34.95    18.8269   0.3495    18.82   0.35    True
  75.45   75.52    1064.56    1064.56   34.88    18.6716   0.3479    18.98   0.35    True
  75.55   75.62     891.27     891.27   34.81    19.2676   0.3535    18.80   0.35    True
  75.65   75.72     769.28     769.28   34.74    18.2587   0.3438    18.29   0.34    True
  75.75   75.82     676.60     676.60   34.67    18.9118   0.3144    18.25   0.31    True
  75.85   75.92     603.52     603.52   34.60    18.5761   0.2852    18.26   0.28    True
  75.95   76.02     544.91     544.91   34.53    18.2162   0.2822    17.94   0.28    True
  76.05   76.12     497.45     497.45   34.46    18.0777   0.2815    17.86   0.28    True
  76.15   76.22     458.75     458.75   34.38    17.6225   0.2777    18.04   0.28    True
  76.25   76.32     427.02     427.02   34.31     17.419   0.2762    17.24   0.27    True
  76.35   76.42     400.94     400.94   34.24     17.187   0.2744    17.51   0.28    True
  76.45   76.52     379.50     379.50   34.17    17.8784   0.3374    17.44   0.33    True
  76.55   76.62     361.96     361.96   34.09    17.6864   0.3356    17.38   0.33    True
  76.65   76.72     347.76     347.76   34.00    17.2535   0.3313    18.33   0.34    True
  76.75   76.82     336.47     336.47   33.93    17.7326   0.3359    17.65   0.33    True
  76.85   76.92     327.79     327.79   33.86    16.8557   0.3275    17.06   0.33    True
  76.95   77.02     321.49     321.49   33.77    17.2411   0.3312    17.37   0.33    True
  77.05   77.12     317.41     317.41   33.71    17.4482   0.3332    17.43   0.33    True
  77.15   77.22     315.46     315.46   33.64     17.341   0.3324    17.51   0.33    True
  77.25   77.32     315.61     315.61   33.58    17.1601   0.3307    16.78   0.33    True
  77.35   77.42     317.87     317.87   33.53    17.0626   0.3297    17.26   0.33    True
  77.45   77.52     322.32     322.32   33.48    16.5672    0.325    16.76   0.33    True
  77.55   77.62     329.08     329.08   33.44    16.4988   0.3241    16.52   0.32    True
  77.65   77.72     338.35     338.35   33.37    16.7759   0.3269    17.40   0.33    True
  77.75   77.82     350.39     350.39   33.33     17.322   0.3323    16.38   0.32    True
  77.85   77.92     365.56     365.56   33.31    16.5242   0.3244    16.29   0.32    True
  77.95   78.02     384.32     384.32   33.25    16.8168   0.3273    16.54   0.32    True
  78.05   78.12     407.26     407.26   33.22    16.4437   0.3235    16.77   0.33    True
  78.15   78.22     435.14     435.14   33.19    16.5844   0.3249    17.05   0.33    True
  78.25   78.32     468.93     468.93   33.16    17.3898   0.3326    17.07   0.33    True
  78.35   78.42     509.92     509.92   33.13    16.3626   0.3226    17.12   0.33    True
  78.45   78.52     559.85     559.85   33.11    16.3284   0.2875    16.96   0.29    True
  78.55   78.62     621.18     621.18   33.11    16.8968   0.2666    16.36   0.26    True
  78.65   78.72     697.63     697.63   33.09    16.7254   0.2651    16.49   0.26    True
  78.75   78.82     795.55     795.55   33.07    17.0607    0.268    17.35   0.27    True
  78.85   78.92     927.22     927.22   33.08      17.07    0.268    16.58   0.26    True
  78.95   79.02    1119.44    1119.44   33.06    17.2916   0.2696    17.06   0.27    True
  79.05   79.12    1432.59    1432.59   33.04    17.1669   0.2688    17.33   0.27    True
  79.15   79.22    1994.92    1994.92   33.03    17.3738    0.298    18.29   0.31    True
  79.25   79.32    3045.08    3045.08   33.01    17.2697   0.3349    18.11   0.34    True
  79.35   79.42    4943.87    4943.87   33.00    18.0956   0.3429    17.78   0.34    True
  79.45   79.52    8081.44    8081.44   32.98    18.2968   0.3449    18.52   0.35    True
  79.55   79.62   12628.11   12628.11   32.97    18.5799   0.3472    17.77   0.34    True
  79.65   79.72   18204.88   18204.88   32.95    18.7089   0.3487    18.80   0.35    True
  79.75   79.82   23677.98   23677.98   32.94    18.6129   0.3476    18.33   0.34    True
  79.85   79.92   27261.87   27261.87   32.92    19.0477   0.3521    18.62   0.35    True
  79.95   80.02   27284.01   27284.01   32.90    19.1686   0.3531    18.83   0.35    True
  80.05   80.12   23737.19   23737.19   32.88    18.5892   0.3476    18.82   0.35    True
  80.15   80.22   18421.48   18421.48   32.86    19.5762   0.3571    20.01   0.36    True
  80.25   80.32   13136.55   13136.55   32.84    21.4686   0.3736    20.23   0.36    True
  80.35   80.42    8800.97    8800.97   32.82    21.4275   0.3733    21.85   0.38    True
  80.45   80.52    5661.70    5661.70   32.80    22.1699   0.3798    21.63   0.37    True
  80.55   80.62    3605.45    3605.45   32.78    23.5651   0.3912    23.55   0.39    True
  80.65   80.72    2365.41    2365.41   32.76     26.158   0.4127    25.36   0.41    True
  80.75   80.82    1656.86    1656.86   32.74    28.0753   0.4271    27.95   0.43    True
  80.85   80.92    1253.72    1253.72   32.72     31.809   0.4545    31.99   0.46    True
  80.95   81.02    1010.45    1010.45   32.69    39.3665   0.5059    37.51   0.49    True
  81.05   81.12     848.02     848.02   32.67    48.4547   0.5607    47.70   0.56    True
  81.15   81.22     728.68     728.68   32.64    61.4617    0.632    61.01   0.63    True
  81.25   81.32     635.49     635.49   32.62    68.6714   0.5329    69.85   0.54    True
  81.35   81.42     560.42     560.42   32.59    76.7134   0.5636    79.58   0.57    True
  81.45   81.52     499.02     499.02   32.56    78.2077   0.5689    78.03   0.57    True
  81.55   81.62     448.35     448.35   32.54    70.6215   0.5407    70.33   0.54    True
  81.65   81.72     406.23     406.23   32.51    58.8468   0.4938    59.07   0.49    True
  81.75   81.82     370.99     370.99   32.48    46.6457   0.4393    46.79   0.44    True
  81.85   81.92     341.37     341.37   32.45    35.1724   0.4586    35.04   0.46    True
  81.95   82.02     316.41     316.41   32.42    28.2557   0.4109    28.37   0.41    True
  82.05   82.12     295.37     295.37   32.39    24.3474   0.3814    24.31   0.38    True
  82.15   82.22     277.70     277.70   32.36    22.6571   0.3681    22.04   0.36    True
  82.25   82.32     263.03     263.03   32.32    20.4823   0.3496    20.11   0.35    True
  82.35   82.42     251.07     251.07   32.29    19.1104    0.338    19.19   0.34    True
  82.45   82.52     241.68     241.68   32.26    18.2266     0.33    18.51   0.33    True
  82.55   82.62     234.88     234.88   32.22    17.4899   0.3234    17.71   0.32    True
  82.65   82.72     230.88     230.88   32.19    17.5741   0.3244    17.63   0.32    True
  82.75   82.82     230.32     230.32   32.15    17.3182   0.3216    17.51   0.32    True
  82.85   82.92     234.70     234.70   32.11    16.9928    0.319    17.00   0.32    True
  82.95   83.02     247.48     247.48   32.08    16.5455   0.3146    16.75   0.32    True
  83.05   83.12     275.91     275.91   32.04    16.8627   0.3175    16.99   0.32    True
  83.15   83.22     333.54     333.54   32.00    17.2957   0.3219    17.11   0.32    True
  83.25   83.32     441.85     441.85   31.96    16.8183   0.3168    16.88   0.32    True
  83.35   83.42     627.22     627.22   31.92    16.6219   0.3155    17.13   0.32    True
  83.45   83.52     909.60     909.60   31.88    16.7556   0.3165    17.14   0.32    True
  83.55   83.62    1283.76    1283.76   31.84    16.5712   0.3146    16.77   0.32    True
  83.65   83.72    1701.97    1701.97   31.80     17.168   0.3204    17.00   0.32    True
  83.75   83.82    2069.70    2069.70   31.75    16.5493   0.3143    16.88   0.32    True
  83.85   83.92    2263.40    2263.40   31.71    16.9267   0.3181    16.61   0.31    True
  83.95   84.02    2194.16    2194.16   31.66     16.677   0.2579    16.92   0.26    True
  84.05   84.12    1895.08    1895.08   31.62    16.8416    0.259    16.94   0.26    True
  84.15   84.22    1494.66    1494.66   31.57    16.8496   0.2593    17.13   0.26    True
  84.25   84.32    1105.48    1105.48   31.53    17.1213   0.2612    17.53   0.26    True
  84.35   84.42     783.42     783.42   31.48    17.4942   0.2642    17.08   0.26    True
  84.45   84.52     543.60     543.60   31.43    16.8671   0.2593    17.56   0.26    True
  84.55   84.62     379.41     379.41   31.39    17.2378   0.3184    16.66   0.31    True
  84.65   84.72     274.59     274.59   31.34    16.6818   0.3132    16.58   0.31    True
  84.75   84.82     210.85     210.85   31.29    16.9282   0.3153    16.50   0.31    True
  84.85   84.92     172.50     172.50   31.24    17.0525   0.3167    16.57   0.31    True
  84.95   85.02     148.48     148.48   31.19    16.3255   0.3097    16.41   0.31    True
  85.05   85.12     132.13     132.13   31.14    16.0803   0.3074    16.65   0.31    True
  85.15   85.22     119.94     119.94   31.09    15.2827   0.2998    15.97   0.31    True
  85.25   85.32     110.20     110.20   31.04    15.8144   0.3049    16.10   0.31    True
  85.35   85.42     102.09     102.09   30.98    15.9468   0.3066    16.27   0.31    True
  85.45   85.52      95.21      95.21   30.93    16.3023   0.3095    16.06   0.31    True
  85.55   85.62      89.28      89.28   30.88    16.7813   0.3144    16.49   0.31    True
  85.65   85.72      84.12      84.12   30.83    17.2906   0.3189    16.70   0.31    True
  85.75   85.82      79.60      79.60   30.77     16.386   0.3104    16.98   0.32    True
  85.85   85.92      75.60      75.60   30.72    16.7527   0.3142    17.05   0.32    True
  85.95   86.02      72.04      72.04   30.66    17.1584   0.3175    16.61   0.31    True
  86.05   86.12      68.83      68.83   30.61    17.4284   0.3203    17.08   0.32    True
  86.15   86.22      65.93      65.93   30.55    16.6051   0.3126    16.76   0.31    True
  86.25   86.32      63.29      63.29   30.50    16.7466   0.3138    17.02   0.32    True
  86.35   86.42      60.88      60.88   30.44    16.6357   0.3126    16.66   0.31    True
  86.45   86.52      58.65      58.65   30.38    16.3375   0.3099    16.33   0.31    True
  86.55   86.62      56.60      56.60   30.33     16.488   0.2785    16.56   0.28    True
  86.65   86.72      54.70      54.70   30.27    16.3752   0.2536    16.18   0.25    True
  86.75   86.82      52.93      52.93   30.22    15.8977   0.2495    16.53   0.25    True
  86.85   86.92      51.28      51.28   30.16    15.7937   0.2491    15.97   0.25    True
  86.95   87.02      49.74      49.74   30.10    15.7491   0.2486    16.01   0.25    True
  87.05   87.12      48.29      48.29   30.04    15.7376   0.2484    15.46   0.25    True
  87.15   87.22      46.92      46.92   29.98    15.2373   0.2446    14.93   0.24    True
  87.25   87.32      45.64      45.64   29.92    15.2708   0.2691    15.89   0.27    True
  87.35   87.42      44.42      44.42   29.87    15.5182   0.3047    15.27   0.30    True
  87.45   87.52      43.27      43.27   29.81    15.5964   0.3053    15.12   0.30    True
  87.55   87.62      42.18      42.18   29.76    15.3829   0.3033    15.27   0.30    True
  87.65   87.72      41.14      41.14   29.70    15.1388   0.3009    15.70   0.31    True
  87.75   87.82      40.15      40.15   29.63    15.1723   0.3012    14.67   0.30    True
  87.85   87.92      39.21      39.21   29.58    14.9122   0.2986    14.60   0.30    True
  87.95   88.02      38.32      38.32   29.51    14.2351   0.2919    15.50   0.30    True
  88.05   88.12      37.46      37.46   29.46    14.7951   0.2976    14.67   0.30    True
  88.15   88.22      36.64      36.64   29.41    14.8418    0.298    14.92   0.30    True
  88.25   88.32      35.85      35.85   29.37    15.0879   0.3007    14.77   0.30    True
  88.35   88.42      35.10      35.10   29.32    14.7733   0.2973    14.92   0.30    True
  88.45   88.52      34.37      34.37   29.27    14.9495   0.2991    14.93   0.30    True
  88.55   88.62      33.68      33.68   29.21    15.0429   0.3001    14.63   0.30    True
  88.65   88.72      33.01      33.01   29.18     14.228   0.2918    14.72   0.30    True
  88.75   88.82      32.36      32.36   29.14    14.9818   0.2995    14.50   0.29    True
  88.85   88.92      31.74      31.74   29.14     14.542   0.2949    14.27   0.29    True
  88.95   89.02      31.15      31.15   29.10    14.6805   0.2963    14.63   0.30    True
  89.05   89.12      30.57      30.57   29.08    14.4934   0.2943    15.07   0.30    True
  89.15   89.22      30.01      30.01   29.06     14.837   0.2978    14.27   0.29    True
  89.25   89.32      29.48      29.48   29.06    14.2804   0.2605    14.71   0.26    True
  89.35   89.42      28.96      28.96   29.06    14.1398   0.2362    14.73   0.24    True
  89.45   89.52      28.45      28.45   29.08    14.1891   0.2366    14.30   0.24    True
  89.55   89.62      27.97      27.97   29.05    15.3468   0.2462    14.45   0.24    True
  89.65   89.72      27.49      27.49   29.07    14.9884   0.2433    14.82   0.24    True
  89.75   89.82      27.04      27.04   29.08     15.209    0.245    14.55   0.24    True
  89.85   89.92      26.59      26.59   29.11    15.2054   0.2451    15.27   0.25    True
  89.95   90.02      26.16      26.16   29.12    14.9646    0.266    15.53   0.27    True

loop_phase1
_pd_peak_index_h
_pd_peak_index_k
_pd_peak_index_l
_pd_peak_index_mult
_pd_peak_2theta
_pd_peak_intensity_plus
_pd_peak_intensity_minus
  1    0   0    6   32.86    4245.81    4245.81
  0    0   1    2   35.20      41.28      41.28
  1    0   1   12   48.96    7714.89    7714.89
  2   -1   0    6   58.73    9968.60    9968.60
  2    0   0    6   69.00   16841.20   16841.20
  2   -1   1   12   70.40   56843.41   56843.41
  0    0   2    2   74.53   19296.24   19296.24
  2    0   1   12   79.93   22767.28   22767.28
  1    0   2   12   83.91    1908.67    1908.67

loop_phase1
_refln_index_h
_refln_index_k
_refln_index_l
_refln_a_calc
_refln_b_calc
_refln_f_squared_calc
_refln_f_polarized_squared_calc
  1    0   0   -0.5392    0.0000    0.58   0.00
  0    0   1    0.0981   -0.0000    0.02   0.00
  1    0   1    0.7328   -0.0000    1.07   0.00
  2   -1   0    1.3640    0.0000    3.72   0.00
  2    0   0    1.9907    0.0000    7.93   0.00
  2   -1   1    2.6207    0.0000   13.74   0.00
  0    0   2    3.8770   -0.0000   30.06   0.00
  2    0   1   -1.7896   -0.0000    6.41   0.00
  1    0   2   -0.5312   -0.0000    0.56   0.00

