global_

data_phase1

_cell_length_a 10.26861(88)
_cell_length_b 10.268610
_cell_length_c 10.268610
_cell_angle_alpha 90.000000
_cell_angle_beta 90.000000
_cell_angle_gamma 90.000000

_space_group_name_H-M_alt "F d -3 m"
_space_group_IT_coordinate_system_code 2

loop_
_atom_site_label
_atom_site_type_symbol
_atom_site_fract_x
_atom_site_fract_y
_atom_site_fract_z
_atom_site_occupancy
_atom_site_adp_type
_atom_site_U_iso_or_equiv
_atom_site_multiplicity
_atom_site_Wyckoff_symbol
  Ho1   Ho3+   0.500000   0.500000   0.500000   1.0   Uiso   0.0   16   d
  Ti1   Ti3+   0.000000   0.000000   0.000000   1.0   Uiso   0.0   16   c
   O1    O2-   0.329600   0.125000   0.125000   1.0   Uiso   0.0   48   f
   O2    O2-   0.375000   0.375000   0.375000   1.0   Uiso   0.0    8   b

loop_
_atom_site_susceptibility_label
_atom_site_susceptibility_chi_type
_atom_site_susceptibility_chi_11
_atom_site_susceptibility_chi_22
_atom_site_susceptibility_chi_33
_atom_site_susceptibility_chi_12
_atom_site_susceptibility_chi_13
_atom_site_susceptibility_chi_23
  Ho1   Cani   3.638(64)   3.63864   3.63864   3.559(43)   3.55874   3.55874

loop_
_atom_site_scat_label
_atom_site_scat_type_symbol
_atom_site_scat_Lande
_atom_site_scat_kappa
  Ho1   Ho3+   1.207(13)   1.0


data_powder1

_setup_wavelength 0.8400
_setup_field 1.00
_setup_offset_2theta -0.3701(22)
_setup_radiation neutrons
_setup_K 0.0
_setup_cthm 0.91000

_pd_instr_resolution_U 15.33(26)
_pd_instr_resolution_V -2.20(11)
_pd_instr_resolution_W 0.497(12)
_pd_instr_resolution_X 0.00000
_pd_instr_resolution_Y 0.00000

_diffrn_radiation_polarization 0.6956(45)
_diffrn_radiation_efficiency 1.0

_chi2_sum True
_chi2_diff True
_chi2_up False
_chi2_down False

_range_2theta_min 4.0
_range_2theta_max 80.0

_pd_instr_reflex_asymmetry_p1 0.0
_pd_instr_reflex_asymmetry_p2 0.0
_pd_instr_reflex_asymmetry_p3 0.0
_pd_instr_reflex_asymmetry_p4 0.0

loop_
_phase_label
_phase_scale
_phase_igsize
  phase1   0.023366(66)   0.0

loop_
_pd_background_2theta
_pd_background_intensity
    5.0   1343.3322677226924
   14.0    981.9838202583264
  28.79    797.6540277879476
  44.76    603.4210875381275
  67.68    573.5733016486242
   82.0    540.5860584044192

loop_
_pd_meas_2theta
_pd_meas_intensity_plus
_pd_meas_intensity_plus_sigma
_pd_meas_intensity_minus
_pd_meas_intensity_minus_sigma
   4.6    626.97    93.64    413.31   90.64
   4.8    708.72    91.83    749.57   92.55
   5.0    718.07    89.38    575.64   87.29
   5.2    679.62    86.86    595.28   85.63
   5.4    683.03    84.66    580.64   83.17
   5.6    727.63    83.54    705.12   83.16
   5.8    709.16    83.16    653.77   82.39
   6.0     765.5    81.54    654.01   79.82
   6.2     813.4    80.76    865.23   81.57
   6.4     613.4    78.81    727.05   80.57
   6.6    530.91    76.38    458.89   75.37
   6.8    892.05    79.61    610.54   75.48
   7.0    932.68    79.59    733.16   76.68
   7.2   1611.08    89.13    863.58    79.1
   7.4   3505.62   109.22   1711.89   88.84
   7.6   5658.21   131.62   2033.16    95.3
   7.8   5454.61   124.07   2091.49   91.29
   8.0   3593.33    88.07   1460.03   68.68
   8.2   1720.63    70.73     906.5   61.95
   8.4    974.33    61.94    877.03   60.86
   8.6   1670.12    68.42   1546.15   67.16
   8.8   2380.65    76.38   2531.38   77.76
   9.0   2816.17     80.7   2649.69   79.25
   9.2    2271.4    72.72   2171.75   71.75
   9.4   1246.23    62.53   1157.09   61.57
   9.6    674.62    56.73    593.59   55.76
   9.8    690.47    55.49    574.28   54.09
  10.0    650.11    54.77    447.35   52.21
  10.2    497.37    53.33    447.73   52.69
  10.4    549.61     52.2    475.87   51.27
  10.6    619.58    53.45    436.48   51.27
  10.8    631.83    52.53    653.12   52.77
  11.0    459.72    51.33    493.73   51.79
  11.2    439.19    51.03    571.14   52.61
  11.4    455.23     51.0    406.06   50.45
  11.6    538.38    50.19     536.0   50.17
  11.8    573.93    46.73    579.49   46.81
  12.0    502.59    37.94    624.97   39.05
  12.2    382.09    37.94     483.5   38.88
  12.4    548.98    38.74    632.66   39.48
  12.6    759.49    40.63    910.88   41.91
  12.8    938.97    42.75   1051.91   43.68
  13.0    966.57    41.93   1127.24   43.23
  13.2    883.26    40.74    887.27   40.78
  13.4     599.7     38.5    592.61   38.42
  13.6    501.64    37.63    467.09   37.31
  13.8    406.53    37.28    396.74   37.19
  14.0    443.33    36.77    448.14   36.81
  14.2    397.42    36.61     482.8   37.39
  14.4    574.92    37.05    536.58   36.71
  14.6    672.48    38.06    514.49   36.69
  14.8    1218.7    42.36    956.73    40.3
  15.0   2038.32    48.33   1581.72   45.19
  15.2   2473.27    51.42    1823.2   47.18
  15.4   2408.49    51.36   1607.34   46.02
  15.6   1924.68    47.46   1161.06   42.19
  15.8   1843.13     46.2     916.4   39.55
  16.0   1535.92    40.56    739.87   35.15
  16.2   1223.09     38.0    704.68    34.3
  16.4    781.62    34.78    576.06   33.25
  16.6    619.03    33.13    497.22   32.16
  16.8    505.57    31.83    598.13   32.55
  17.0    513.34    31.68     462.2   31.27
  17.2    489.86    31.63    426.67   31.16
  17.4    451.39    31.36     501.7   31.76
  17.6    508.04    31.77    475.44   31.52
  17.8    581.81    32.38    541.25   32.05
  18.0    562.86    32.51    906.08   34.98
  18.2    766.89    33.35    1573.5   38.62
  18.4    817.74    33.59   2054.02   41.36
  18.6     796.7    33.16   1995.08   40.81
  18.8    750.51    32.89   1463.24   37.67
  19.0     484.9    31.53    800.24   33.81
  19.2    612.94    32.68    679.12   33.16
  19.4    781.23    34.38    676.61   33.67
  19.6   1289.18    38.78     876.5   36.32
  19.8   2615.92    46.49   1533.95   40.91
  20.0   4003.54    51.29   2123.31   42.79
  20.2   4419.98     50.0   2327.75   41.09
  20.4   3733.59    46.73   1967.75    38.7
  20.6   2353.72    39.82   1378.38   34.74
  20.8   1232.64    32.87    838.03   30.55
  21.0    766.54    29.84    696.61   29.41
  21.2    641.73     28.8    530.86   28.07
  21.4    527.51    27.72    561.44   27.95
  21.6    530.99    28.18    446.06   27.62
  21.8     490.1    28.25    494.58   28.27
  22.0    514.55     29.3    500.51   29.22
  22.2    533.06    32.35    467.21   31.99
  22.4    648.52    35.82    582.96    35.5
  22.6    917.85    38.65    732.61   37.78
  22.8    1039.3    39.21    799.88   38.09
  23.0    939.74    37.64    802.83   36.98
  23.2    699.73    35.78    518.17   34.86
  23.4     775.6    35.29    659.02   34.71
  23.6    928.82    36.02    793.95   35.33
  23.8   1633.96    37.75   1023.04   34.74
  24.0   2188.94    38.83    1296.8   34.47
  24.2   2444.96    38.05   1446.82   33.24
  24.4   2116.27    32.38   1214.12   28.23
  24.6   1543.45    29.04    942.93   26.11
  24.8    977.04    26.34    667.36   24.66
  25.0    628.41    24.67    492.07   23.89
  25.2    487.43    24.15    480.94   24.11
  25.4    497.39    24.17    447.33   23.88
  25.6    647.35    25.27     465.6   24.25
  25.8   1052.79    27.22    625.33   24.98
  26.0    1649.1    29.87    849.44   25.96
  26.2   2207.57    32.63   1046.96   27.24
  26.4    2333.0    32.98   1095.76   27.27
  26.6   2142.82    32.02   1004.78   26.64
  26.8   1673.56    29.65    836.33   25.43
  27.0   1322.86    27.92    765.03   24.99
  27.2   1287.82    27.03    830.93   24.66
  27.4   1472.66    28.48   1048.04   26.34
  27.6   1567.65    29.09   1103.57   26.79
  27.8   1574.07    29.08   1100.41   26.74
  28.0   1399.46    27.96   1031.16   26.08
  28.2   1030.61    26.35    743.96    24.8
  28.4    758.88    24.54    606.56   23.69
  28.6    628.06    23.52    556.65   23.12
  28.8    445.17    21.95    382.78    21.6
  29.0    449.58    21.93    467.35   22.03
  29.2     503.8    22.35    448.32   22.03
  29.4    509.06    22.33    546.19   22.53
  29.6    497.25    22.31     507.6   22.37
  29.8    490.91    21.67    560.91   22.05
  30.0    462.58    22.04    470.28   22.09
  30.2    561.88    22.53    470.89   22.02
  30.4    611.56    22.93    457.03   22.07
  30.6    801.05    24.01    517.54   22.48
  30.8    996.87    24.87    583.47    22.7
  31.0   1032.46    24.83    530.61   22.22
  31.2     964.6    24.52    545.47   22.32
  31.4    813.86    24.21     450.4   22.26
  31.6    686.45    23.58     412.7   22.08
  31.8     549.7    22.98    454.26   22.45
  32.0    422.51    22.74    341.25   22.29
  32.2    395.75    22.67    454.49   22.99
  32.4    505.26    22.81    514.08   22.85
  32.6    592.33    23.73    597.95   23.76
  32.8    578.01     23.9    627.39   24.15
  33.0     690.8    24.41    637.12   24.14
  33.2    904.55    24.59    776.17   23.95
  33.4     963.1    24.19    867.92   23.74
  33.6   1014.36    24.24    828.51   23.38
  33.8   1026.12     24.2    829.64   23.28
  34.0    835.89    23.52    712.27   22.92
  34.2    763.65    22.83    579.33    21.9
  34.4    633.36    21.85    547.65    21.4
  34.6    522.38     21.3    495.49   21.16
  34.8    468.79    20.78    426.16   20.56
  35.0    516.68    21.05    450.68    20.7
  35.2    517.87    21.25    468.35   20.99
  35.4    564.38    21.54    497.42   21.18
  35.6    659.37    21.96     554.5   21.41
  35.8    739.31    22.34    640.63   21.83
  36.0    780.55    22.82    714.19   22.49
  36.2    813.37    22.41    736.49   22.03
  36.4    824.91    22.94    682.31   22.22
  36.6    699.62    22.55    579.61   21.93
  36.8    648.17    22.53    553.46   22.05
  37.0    618.88    22.13     477.1   21.39
  37.2    616.44    22.19    463.55   21.39
  37.4    606.81     22.1    436.42   21.22
  37.6    760.71    22.67    510.51    21.4
  37.8    823.09    23.34    539.36   21.91
  38.0   1037.79    24.07    670.68   22.32
  38.2   1246.18    23.53    772.13    21.5
  38.4   1453.93    24.36     901.2   22.05
  38.6   1511.67    24.69    929.03   22.29
  38.8   1552.58    24.28    959.34   21.89
  39.0   1442.43    24.36     875.0    22.0
  39.2   1255.67    23.54    811.69   21.64
  39.4   1091.87    23.01    718.89   21.39
  39.6    994.66    22.68    794.16   21.81
  39.8    951.74    22.64    758.71    21.8
  40.0    965.42    22.32    805.74   21.64
  40.2   1014.54    22.55    825.05   21.74
  40.4   1103.25    23.07     834.5   21.91
  40.6   1184.43    23.15    847.84   21.69
  40.8   1163.32     23.0     841.6    21.6
  41.0   1189.78    22.82    840.43   21.29
  41.2   1103.75    22.47    744.38   20.87
  41.4    987.65    21.68    651.18   20.18
  41.6    895.73    21.68    550.27   20.08
  41.8    770.71    21.06    536.03   19.96
  42.0    739.94    20.69    566.98   19.86
  42.2    611.68    20.21    497.18   19.66
  42.4    579.35    20.14    496.71   19.75
  42.6    674.59    20.47    612.71   20.18
  42.8    799.77     21.0    660.72   20.36
  43.0    918.99     21.8    759.38   21.07
  43.2     970.8    21.71    813.78   21.02
  43.4     989.3    21.27    775.88   20.34
  43.6    935.56    21.05    741.83   20.21
  43.8    858.98    20.78    653.32   19.86
  44.0    747.31    19.91    644.53   19.46
  44.2    612.06     19.8    536.06   19.45
  44.4    593.74    19.54     552.9   19.36
  44.6    530.94    19.27    489.24   19.07
  44.8    528.63    19.13    500.05    19.0
  45.0    469.52    19.06    430.64   18.87
  45.2    534.29    19.03     473.4   18.74
  45.4    525.74    19.05    434.18   18.61
  45.6    550.94    19.36    430.33   18.78
  45.8    506.21    19.46    369.13    18.8
  46.0     552.6    19.45    408.85   18.76
  46.2    553.46    19.66    382.02   18.84
  46.4    687.62    19.99     445.8   18.86
  46.6    788.41    20.57    527.19   19.39
  46.8    865.62    21.07    582.79    19.8
  47.0    989.21    21.73    621.68   20.12
  47.2   1036.96    21.86    704.48   20.41
  47.4   1098.85    22.19    779.26   20.82
  47.6   1102.77    22.26    749.03   20.76
  47.8   1075.87    21.73     806.1    20.6
  48.0   1080.76    22.09    777.22   20.78
  48.2    966.23    21.67    775.51   20.84
  48.4    931.75    21.65    720.35   20.71
  48.6     951.5    21.58    724.42   20.58
  48.8   1002.48    21.72    756.01   20.64
  49.0   1031.25    20.95     788.1   19.94
  49.2    1069.0    21.06    796.87   19.93
  49.4   1083.97    21.42    778.77   20.16
  49.6   1064.51    21.38    774.61   20.16
  49.8    974.36    21.06    687.69   19.84
  50.0    951.34    20.77    694.11   19.66
  50.2     804.2    20.45    559.25   19.39
  50.4    714.32    19.84    494.37   18.89
  50.6    623.51    19.99    430.84   19.13
  50.8    586.16     19.9    364.58   18.88
  51.0    543.88    19.66    424.13   19.12
  51.2    488.87    19.43    342.94   18.76
  51.4    447.83    19.32    354.02    18.9
  51.6    513.26    19.42    340.74   18.63
  51.8    460.48    19.29    365.78   18.86
  52.0    478.07    19.69    385.82   19.27
  52.2     469.2    19.64    416.23    19.4
  52.4    457.61    19.69    420.67   19.53
  52.6    436.64    19.66     387.2   19.42
  52.8    469.28     19.9    363.95   19.42
  53.0    454.48    19.45    393.31   19.17
  53.2    433.11    19.83    384.81   19.61
  53.4    452.99    19.92    393.66   19.66
  53.6    460.91    20.11    385.75   19.77
  53.8    479.42    20.05    372.58   19.56
  54.0    514.08    20.17    406.62   19.69
  54.2    520.71    20.18    373.26   19.53
  54.4    556.73    20.36    444.45   19.87
  54.6    640.13    20.93    460.57   20.15
  54.8    772.45    21.23    619.57   20.56
  55.0    745.57    21.06    596.61   20.42
  55.2    827.09    21.06     654.5   20.32
  55.4     863.2    19.97    682.19   19.24
  55.6    816.19    19.45    712.54   19.04
  55.8    802.26    19.82    725.82    19.5
  56.0    762.03    19.72    668.88   19.34
  56.2    748.92    19.44    690.69   19.19
  56.4    764.06    19.41    674.79   19.05
  56.6    673.13    19.15    624.78   18.95
  56.8    658.88    18.93    591.05   18.65
  57.0    656.83    18.95    574.08   18.59
  57.2    647.48     19.0     549.5   18.58
  57.4    632.71    19.01    532.24   18.58
  57.6    579.93    18.76    485.92   18.35
  57.8    559.33    18.67    495.27   18.41
  58.0    578.68    18.69    409.25   17.96
  58.2    584.81    18.83    417.08   18.11
  58.4    575.37    19.05    432.76   18.46
  58.6    603.54    19.11    447.21   18.45
  58.8    640.61    19.32    474.09    18.6
  59.0     684.9    19.35    529.04   18.68
  59.2    710.68    19.57     544.5   18.87
  59.4    787.38    19.55    615.82   18.84
  59.6    809.81    20.02    642.48   19.34
  59.8    823.77    19.97    695.08   19.44
  60.0    826.28    20.05    698.82   19.54
  60.2    838.05    20.14    678.24   19.49
  60.4    754.59     19.7    635.75   19.21
  60.6    714.59    19.58    604.37   19.14
  60.8    688.71    19.42    583.78   19.01
  61.0    696.51    19.61    582.59   19.13
  61.2    675.24    19.53     569.0   19.08
  61.4    613.01    19.43    457.24   18.76
  61.6     637.1    19.31    470.77    18.6
  61.8    544.48    19.14    396.37    18.5
  62.0    516.27    18.73    352.58   18.03
  62.2    455.27    18.93    362.03   18.51
  62.4    474.72     19.0    379.43    18.6
  62.6    456.16    18.89    383.13   18.55
  62.8    466.05    18.86    356.88   18.37
  63.0    456.94    18.38    326.35   17.84
  63.2    440.41    18.02    354.34   17.65
  63.4    512.77    18.29    418.84   17.88
  63.6    488.59    18.45    414.36   18.14
  63.8    548.22    18.59    454.19   18.17
  64.0    630.73    18.73    492.07   18.14
  64.2    605.66    18.78    437.66   18.07
  64.4    659.66    18.98    516.44   18.38
  64.6    782.99     19.1    592.39   18.33
  64.8    839.92     19.7    625.32   18.81
  65.0     919.4    19.95    696.39   19.04
  65.2    924.99    20.01    707.15   19.14
  65.4    1017.5    20.21    801.94   19.36
  65.6   1000.25    20.27     785.1   19.42
  65.8   1035.91    20.12    838.97   19.36
  66.0   1062.77    20.26    814.77   19.29
  66.2   1023.34    20.31    820.36   19.51
  66.4     950.9    20.05     786.3   19.38
  66.6    901.83    19.85    723.91   19.11
  66.8    858.09    19.68    703.26   19.04
  67.0    788.71    19.33    663.21   18.81
  67.2    818.61    19.15     622.0   18.35
  67.4    731.56    19.16    609.02   18.65
  67.6    699.64    19.07     587.8   18.58
  67.8    615.29    18.76    508.89    18.3
  68.0    584.64    18.69    450.59   18.11
  68.2    610.66    18.77    481.61   18.19
  68.4    515.66    18.57    438.07   18.22
  68.6    566.21    18.84    513.38   18.61
  68.8    557.98    19.09    489.74    18.8
  69.0    590.37     19.1    496.35   18.68
  69.2    602.21     19.1    494.58   18.61
  69.4    610.71    19.04     558.7    18.8
  69.6    631.87    19.24    495.94   18.65
  69.8    614.17    19.33    526.89   18.93
  70.0    591.01    19.73     555.2   19.57
  70.2    682.02     19.9    570.09   19.41
  70.4    671.82    19.93    558.63   19.42
  70.6    620.64    19.65    564.74    19.4
  70.8     672.9    19.91    521.03   19.23
  71.0    623.43    19.82    521.46   19.37
  71.2     650.8    20.39    527.79   19.83
  71.4     656.9    20.31    562.97   19.88
  71.6    610.22    20.36    494.24   19.83
  71.8    570.86     20.2    472.73   19.73
  72.0    576.21    20.21    466.77    19.7
  72.2    611.69    20.39    520.16   19.97
  72.4    659.55    20.73    527.62   20.12
  72.6    614.16    20.83    557.11   20.54
  72.8    639.04    21.14    550.08   20.71
  73.0    596.43    20.82    572.05    20.7
  73.2    557.56    20.74     532.2   20.61
  73.4    562.18    20.65    539.59   20.54
  73.6    614.91    20.34    573.38   20.15
  73.8    648.89    20.81    601.64    20.6
  74.0    644.83     20.9    598.98   20.67
  74.2    647.35    20.85    604.49   20.66
  74.4    625.47    20.75    583.45   20.56
  74.6    659.67    20.98     571.6   20.56
  74.8    598.98    20.63     555.6   20.43
  75.0    649.05     21.1    590.07   20.82
  75.2    720.45    21.57    600.83   21.01
  75.4    704.04    21.52    644.58   21.24
  75.6     639.5    21.38    591.09   21.14
  75.8    681.64    21.39    628.85   21.15
  76.0    717.42    21.59    602.84   21.04
  76.2    691.49    21.53    616.86   21.16
  76.4    666.95    21.93    634.47   21.77
  76.6    670.42    22.02    540.49   21.38
  76.8    627.38    21.94     483.2   21.22
  77.0    554.07    21.69    521.92   21.53
  77.2    578.27    21.76    535.31   21.53
  77.4    603.68    21.85    443.49   21.07
  77.6    612.98    22.41    433.23   21.49
  77.8    636.95     22.6    496.25   21.89
  78.0    602.01    22.52    449.83   21.72
  78.2    605.13    22.55    514.09   22.08
  78.4    618.76     22.5    485.65    21.8
  78.6    583.18    22.41    487.78   21.93
  78.8    586.35    22.52    510.53   22.15
  79.0    633.06    23.39    538.35   22.92
  79.2    668.07    23.68    592.58    23.3
  79.4    673.48    23.59    539.33   22.89
  79.6    620.36    23.39    568.03   23.12
  79.8    697.11    23.49    609.58   23.03
  80.0    696.35    23.69    559.43    23.0
  80.2     673.4    23.99     578.5   23.48
  80.4    715.34    24.45    631.24    24.0
  80.6    625.41    23.98     627.0   23.99
  80.8    659.25     24.3    600.44    24.0
  81.0    617.92     24.1    526.94   23.63
  81.2     643.9    24.21    551.74   23.72
  81.4    610.43    24.05    570.73   23.84
  81.6    687.21    25.11    535.41   24.27
  81.8    604.92    24.92    559.32   24.65
  82.0    589.97    24.97    499.26   24.46

loop_
_exclude_id
_exclude_2theta_min
_exclude_2theta_max
  1   0.0   1.0

loop_
_pd_proc_2theta
_pd_proc_2theta_corrected
_pd_proc_intensity_plus_net
_pd_proc_intensity_minus_net
_pd_proc_intensity_bkg_calc
_pd_proc_intensity_plus
_pd_proc_intensity_plus_sigma
_pd_proc_intensity_minus
_pd_proc_intensity_minus_sigma
_pd_proc_excluded
   4.60    4.97      0.00      0.00   1359.39    626.97    93.64    413.31   90.64   False
   4.80    5.17      0.00      0.00   1351.36    708.72    91.83    749.57   92.55   False
   5.00    5.37      0.00      0.00   1343.33    718.07    89.38    575.64   87.29   False
   5.20    5.57      0.00      0.00   1335.30    679.62    86.86    595.28   85.63   False
   5.40    5.77      0.00      0.00   1327.27    683.03    84.66    580.64   83.17   False
   5.60    5.97      0.00      0.00   1319.24    727.63    83.54    705.12   83.16   False
   5.80    6.17      0.00      0.00   1311.21    709.16    83.16    653.77   82.39   False
   6.00    6.37      0.00      0.00   1303.18     765.5    81.54    654.01   79.82   False
   6.20    6.57      0.00      0.00   1295.15     813.4    80.76    865.23   81.57   False
   6.40    6.77      0.05      0.01   1287.12     613.4    78.81    727.05   80.57   False
   6.60    6.97      1.15      0.36   1279.09    530.91    76.38    458.89   75.37   False
   6.80    7.17     17.55      5.45   1271.06    892.05    79.61    610.54   75.48   False
   7.00    7.37    158.91     49.33   1263.03    932.68    79.59    733.16   76.68   False
   7.20    7.57    852.46    264.63   1255.00   1611.08    89.13    863.58   79.10   False
   7.40    7.77   2701.62    838.65   1246.97   3505.62   109.22   1711.89   88.84   False
   7.60    7.97   5048.73   1567.26   1238.94   5658.21   131.62   2033.16   95.30   False
   7.80    8.17   5557.07   1725.14   1230.91   5454.61   124.07   2091.49   91.29   False
   8.00    8.37   3602.99   1120.02   1222.88   3593.33    88.07   1460.03   68.68   False
   8.20    8.57   1398.46    451.04   1214.85   1720.63    70.73    906.50   61.95   False
   8.40    8.77    465.24    252.15   1206.82    974.33    61.94    877.03   60.86   False
   8.60    8.97    625.70    597.40   1198.79   1670.12    68.42   1546.15   67.16   False
   8.80    9.17   1290.09   1287.86   1190.76   2380.65    76.38   2531.38   77.76   False
   9.00    9.37   1667.53   1667.43   1182.73   2816.17     80.7   2649.69   79.25   False
   9.20    9.57   1273.83   1273.83   1174.70    2271.4    72.72   2171.75   71.75   False
   9.40    9.77    575.14    575.14   1166.67   1246.23    62.53   1157.09   61.57   False
   9.60    9.97    153.93    153.93   1158.64    674.62    56.73    593.59   55.76   False
   9.80   10.17     24.51     24.51   1150.61    690.47    55.49    574.28   54.09   False
  10.00   10.37      2.33      2.33   1142.58    650.11    54.77    447.35   52.21   False
  10.20   10.57      0.13      0.13   1134.55    497.37    53.33    447.73   52.69   False
  10.40   10.77      0.00      0.00   1126.52    549.61     52.2    475.87   51.27   False
  10.60   10.97      0.00      0.00   1118.49    619.58    53.45    436.48   51.27   False
  10.80   11.17      0.00      0.00   1110.46    631.83    52.53    653.12   52.77   False
  11.00   11.37      0.00      0.00   1102.43    459.72    51.33    493.73   51.79   False
  11.20   11.57      0.00      0.00   1094.40    439.19    51.03    571.14   52.61   False
  11.40   11.77      0.00      0.00   1086.37    455.23     51.0    406.06   50.45   False
  11.60   11.97      0.01      0.02   1078.34    538.38    50.19    536.00   50.17   False
  11.80   12.17      0.28      0.39   1070.31    573.93    46.73    579.49   46.81   False
  12.00   12.37      3.71      5.14   1062.28    502.59    37.94    624.97   39.05   False
  12.20   12.57     28.74     39.82   1054.25    382.09    37.94    483.50   38.88   False
  12.40   12.77    132.42    183.47   1046.22    548.98    38.74    632.66   39.48   False
  12.60   12.97    365.04    505.76   1038.19    759.49    40.63    910.88   41.91   False
  12.80   13.17    606.31    840.04   1030.16    938.97    42.75   1051.91   43.68   False
  13.00   13.37    611.31    846.97   1022.13    966.57    41.93   1127.24   43.23   False
  13.20   13.57    377.13    522.52   1014.10    883.26    40.74    887.27   40.78   False
  13.40   13.77    143.56    198.90   1006.07     599.7     38.5    592.61   38.42   False
  13.60   13.97     34.02     47.13    998.04    501.64    37.63    467.09   37.31   False
  13.80   14.17      5.08      7.02    990.01    406.53    37.28    396.74   37.19   False
  14.00   14.37      0.74      0.84    981.98    443.33    36.77    448.14   36.81   False
  14.20   14.57      3.93      2.74    979.49    397.42    36.61    482.80   37.39   False
  14.40   14.77     35.02     24.21    977.00    574.92    37.05    536.58   36.71   False
  14.60   14.97    190.96    131.98    974.51    672.48    38.06    514.49   36.69   False
  14.80   15.17    638.84    441.22    972.01    1218.7    42.36    956.73   40.30   False
  15.00   15.37   1328.91    914.32    969.52   2038.32    48.33   1581.72   45.19   False
  15.20   15.57   1771.37   1195.72    967.03   2473.27    51.42   1823.20   47.18   False
  15.40   15.77   1669.47   1036.02    964.54   2408.49    51.36   1607.34   46.02   False
  15.60   15.97   1441.62    695.32    962.04   1924.68    47.46   1161.06   42.19   False
  15.80   16.17   1398.63    483.56    959.55   1843.13     46.2    916.40   39.55   False
  16.00   16.37   1232.39    359.43    957.06   1535.92    40.56    739.87   35.15   False
  16.20   16.57    779.36    216.61    954.56   1223.09     38.0    704.68   34.30   False
  16.40   16.77    328.29     90.22    952.07    781.62    34.78    576.06   33.25   False
  16.60   16.97     91.23     25.01    949.58    619.03    33.13    497.22   32.16   False
  16.80   17.17     16.83      4.61    947.09    505.57    31.83    598.13   32.55   False
  17.00   17.37      2.09      0.59    944.59    513.34    31.68    462.20   31.27   False
  17.20   17.57      0.26      0.44    942.10    489.86    31.63    426.67   31.16   False
  17.40   17.77      1.03      4.81    939.61    451.39    31.36    501.70   31.76   False
  17.60   17.97      7.82     36.72    937.12    508.04    31.77    475.44   31.52   False
  17.80   18.17     38.13    179.12    934.62    581.81    32.38    541.25   32.05   False
  18.00   18.37    120.06    563.93    932.13    562.86    32.51    906.08   34.98   False
  18.20   18.57    246.64   1158.51    929.64    766.89    33.35   1573.50   38.62   False
  18.40   18.77    334.34   1570.42    927.15    817.74    33.59   2054.02   41.36   False
  18.60   18.97    302.45   1420.52    924.65     796.7    33.16   1995.08   40.81   False
  18.80   19.17    185.05    867.27    922.16    750.51    32.89   1463.24   37.67   False
  19.00   19.37     82.57    363.48    919.67     484.9    31.53    800.24   33.81   False
  19.20   19.57     68.90    122.60    917.18    612.94    32.68    679.12   33.16   False
  19.40   19.77    257.42    122.20    914.68    781.23    34.38    676.61   33.67   False
  19.60   19.97    906.47    366.11    912.19   1289.18    38.78    876.50   36.32   False
  19.80   20.17   2173.49    873.14    909.70   2615.92    46.49   1533.95   40.91   False
  20.00   20.37   3538.65   1427.89    907.21   4003.54    51.29   2123.31   42.79   False
  20.20   20.57   3967.22   1621.29    904.71   4419.98     50.0   2327.75   41.09   False
  20.40   20.77   3124.15   1318.61    902.22   3733.59    46.73   1967.75   38.70   False
  20.60   20.97   1783.80    810.76    899.73   2353.72    39.82   1378.38   34.74   False
  20.80   21.17    778.86    407.61    897.23   1232.64    32.87    838.03   30.55   False
  21.00   21.37    280.36    178.98    894.74    766.54    29.84    696.61   29.41   False
  21.20   21.57     88.46     68.42    892.25    641.73     28.8    530.86   28.07   False
  21.40   21.77     24.67     21.70    889.76    527.51    27.72    561.44   27.95   False
  21.60   21.97      8.48      7.51    887.26    530.99    28.18    446.06   27.62   False
  21.80   22.17     19.07     14.98    884.77     490.1    28.25    494.58   28.27   False
  22.00   22.37     76.54     59.37    882.28    514.55     29.3    500.51   29.22   False
  22.20   22.57    224.70    174.20    879.79    533.06    32.35    467.21   31.99   False
  22.40   22.77    464.79    360.34    877.29    648.52    35.82    582.96   35.50   False
  22.60   22.97    683.75    530.06    874.80    917.85    38.65    732.61   37.78   False
  22.80   23.17    723.82    560.83    872.31    1039.3    39.21    799.88   38.09   False
  23.00   23.37    564.14    434.73    869.82    939.74    37.64    802.83   36.98   False
  23.20   23.57    365.32    268.46    867.32    699.73    35.78    518.17   34.86   False
  23.40   23.77    339.85    205.07    864.83     775.6    35.29    659.02   34.71   False
  23.60   23.97    632.04    325.13    862.34    928.82    36.02    793.95   35.33   False
  23.80   24.17   1212.78    604.75    859.85   1633.96    37.75   1023.04   34.74   False
  24.00   24.37   1784.48    886.36    857.35   2188.94    38.83   1296.80   34.47   False
  24.20   24.57   1943.24    964.76    854.86   2444.96    38.05   1446.82   33.24   False
  24.40   24.77   1573.20    781.00    852.37   2116.27    32.38   1214.12   28.23   False
  24.60   24.97    955.52    474.35    849.87   1543.45    29.04    942.93   26.11   False
  24.80   25.17    439.80    218.29    847.38    977.04    26.34    667.36   24.66   False
  25.00   25.37    157.02     77.58    844.89    628.41    24.67    492.07   23.89   False
  25.20   25.57     57.85     26.30    842.40    487.43    24.15    480.94   24.11   False
  25.40   25.77     83.81     30.20    839.90    497.39    24.17    447.33   23.88   False
  25.60   25.97    260.35     89.85    837.41    647.35    25.27    465.60   24.25   False
  25.80   26.17    662.44    228.09    834.92   1052.79    27.22    625.33   24.98   False
  26.00   26.37   1266.70    436.11    832.43    1649.1    29.87    849.44   25.96   False
  26.20   26.57   1829.12    629.94    829.93   2207.57    32.63   1046.96   27.24   False
  26.40   26.77   2016.34    695.60    827.44    2333.0    32.98   1095.76   27.27   False
  26.60   26.97   1729.93    602.22    824.95   2142.82    32.02   1004.78   26.64   False
  26.80   27.17   1224.76    444.88    822.46   1673.56    29.65    836.33   25.43   False
  27.00   27.37    865.25    359.83    819.96   1322.86    27.92    765.03   24.99   False
  27.20   27.57    821.21    411.07    817.47   1287.82    27.03    830.93   24.66   False
  27.40   27.77    989.66    551.22    814.98   1472.66    28.48   1048.04   26.34   False
  27.60   27.97   1135.61    669.49    812.49   1567.65    29.09   1103.57   26.79   False
  27.80   28.17   1093.31    678.94    809.99   1574.07    29.08   1100.41   26.74   False
  28.00   28.37    865.80    571.28    807.50   1399.46    27.96   1031.16   26.08   False
  28.20   28.57    568.80    402.46    805.01   1030.61    26.35    743.96   24.80   False
  28.40   28.77    314.50    240.95    802.51    758.88    24.54    606.56   23.69   False
  28.60   28.97    150.67    130.60    800.02    628.06    23.52    556.65   23.12   False
  28.80   29.17     71.45     85.14    797.53    445.17    21.95    382.78   21.60   False
  29.00   29.37     50.59     98.10    795.10    449.58    21.93    467.35   22.03   False
  29.20   29.57     61.19    148.53    792.67     503.8    22.35    448.32   22.03   False
  29.40   29.77     80.37    202.92    790.23    509.06    22.33    546.19   22.53   False
  29.60   29.97     92.70    227.95    787.80    497.25    22.31    507.60   22.37   False
  29.80   30.17     97.68    212.90    785.37    490.91    21.67    560.91   22.05   False
  30.00   30.37    113.24    178.04    782.94    462.58    22.04    470.28   22.09   False
  30.20   30.57    166.48    155.89    780.51    561.88    22.53    470.89   22.02   False
  30.40   30.77    273.69    163.40    778.07    611.56    22.93    457.03   22.07   False
  30.60   30.97    420.24    190.74    775.64    801.05    24.01    517.54   22.48   False
  30.80   31.17    556.11    212.66    773.21    996.87    24.87    583.47   22.70   False
  31.00   31.37    619.17    208.85    770.78   1032.46    24.83    530.61   22.22   False
  31.20   31.57    576.55    176.99    768.34     964.6    24.52    545.47   22.32   False
  31.40   31.77    449.13    132.02    765.91    813.86    24.21    450.40   22.26   False
  31.60   31.97    294.69     95.62    763.48    686.45    23.58    412.70   22.08   False
  31.80   32.17    167.09     84.45    761.05     549.7    22.98    454.26   22.45   False
  32.00   32.37     89.61    102.42    758.61    422.51    22.74    341.25   22.29   False
  32.20   32.57     58.16    139.53    756.18    395.75    22.67    454.49   22.99   False
  32.40   32.77     61.26    179.58    753.75    505.26    22.81    514.08   22.85   False
  32.60   32.97     97.07    214.93    751.32    592.33    23.73    597.95   23.76   False
  32.80   33.17    175.64    255.63    748.88    578.01     23.9    627.39   24.15   False
  33.00   33.37    303.63    319.43    746.45     690.8    24.41    637.12   24.14   False
  33.20   33.57    462.03    407.39    744.02    904.55    24.59    776.17   23.95   False
  33.40   33.77    600.15    490.74    741.59     963.1    24.19    867.92   23.74   False
  33.60   33.97    660.51    526.75    739.15   1014.36    24.24    828.51   23.38   False
  33.80   34.17    617.42    491.13    736.72   1026.12     24.2    829.64   23.28   False
  34.00   34.37    494.36    396.18    734.29    835.89    23.52    712.27   22.92   False
  34.20   34.57    345.65    280.09    731.86    763.65    22.83    579.33   21.90   False
  34.40   34.77    222.17    181.46    729.42    633.36    21.85    547.65   21.40   False
  34.60   34.97    149.18    120.92    726.99    522.38     21.3    495.49   21.16   False
  34.80   35.17    125.72     99.16    724.56    468.79    20.78    426.16   20.56   False
  35.00   35.37    137.47    106.18    722.13    516.68    21.05    450.68   20.70   False
  35.20   35.57    171.70    132.76    719.69    517.87    21.25    468.35   20.99   False
  35.40   35.77    224.70    176.36    717.26    564.38    21.54    497.42   21.18   False
  35.60   35.97    296.94    237.10    714.83    659.37    21.96    554.50   21.41   False
  35.80   36.17    380.14    307.46    712.40    739.31    22.34    640.63   21.83   False
  36.00   36.37    450.27    366.85    709.96    780.55    22.82    714.19   22.49   False
  36.20   36.57    477.55    390.08    707.53    813.37    22.41    736.49   22.03   False
  36.40   36.77    447.47    364.30    705.10    824.91    22.94    682.31   22.22   False
  36.60   36.97    373.65    299.14    702.67    699.62    22.55    579.61   21.93   False
  36.80   37.17    291.09    220.92    700.23    648.17    22.53    553.46   22.05   False
  37.00   37.37    236.40    157.08    697.80    618.88    22.13    477.10   21.39   False
  37.20   37.57    231.18    123.93    695.37    616.44    22.19    463.55   21.39   False
  37.40   37.77    279.35    125.11    692.94    606.81     22.1    436.42   21.22   False
  37.60   37.97    376.48    158.15    690.50    760.71    22.67    510.51   21.40   False
  37.80   38.17    520.08    221.01    688.07    823.09    23.34    539.36   21.91   False
  38.00   38.37    708.24    311.80    685.64   1037.79    24.07    670.68   22.32   False
  38.20   38.57    924.71    421.40    683.21   1246.18    23.53    772.13   21.50   False
  38.40   38.77   1125.99    527.37    680.77   1453.93    24.36    901.20   22.05   False
  38.60   38.97   1250.74    598.90    678.34   1511.67    24.69    929.03   22.29   False
  38.80   39.17   1252.77    613.19    675.91   1552.58    24.28    959.34   21.89   False
  39.00   39.37   1133.28    571.62    673.48   1442.43    24.36    875.00   22.00   False
  39.20   39.57    944.72    501.63    671.04   1255.67    23.54    811.69   21.64   False
  39.40   39.77    761.82    441.48    668.61   1091.87    23.01    718.89   21.39   False
  39.60   39.97    642.37    418.65    666.18    994.66    22.68    794.16   21.81   False
  39.80   40.17    604.45    436.55    663.75    951.74    22.64    758.71   21.80   False
  40.00   40.37    630.73    477.20    661.31    965.42    22.32    805.74   21.64   False
  40.20   40.57    689.62    515.46    658.88   1014.54    22.55    825.05   21.74   False
  40.40   40.77    754.43    533.53    656.45   1103.25    23.07    834.50   21.91   False
  40.60   40.97    808.61    526.22    654.02   1184.43    23.15    847.84   21.69   False
  40.80   41.17    839.92    496.83    651.58   1163.32     23.0    841.60   21.60   False
  41.00   41.37    835.27    450.67    649.15   1189.78    22.82    840.43   21.29   False
  41.20   41.57    784.02    392.65    646.72   1103.75    22.47    744.38   20.87   False
  41.40   41.77    686.63    329.07    644.29    987.65    21.68    651.18   20.18   False
  41.60   41.97    559.31    269.28    641.85    895.73    21.68    550.27   20.08   False
  41.80   42.17    430.07    224.25    639.42    770.71    21.06    536.03   19.96   False
  42.00   42.37    328.91    203.06    636.99    739.94    20.69    566.98   19.86   False
  42.20   42.57    278.60    210.10    634.56    611.68    20.21    497.18   19.66   False
  42.40   42.77    289.12    244.27    632.12    579.35    20.14    496.71   19.75   False
  42.60   42.97    355.38    299.14    629.69    674.59    20.47    612.71   20.18   False
  42.80   43.17    457.19    363.27    627.26    799.77     21.0    660.72   20.36   False
  43.00   43.37    562.93    421.29    624.83    918.99     21.8    759.38   21.07   False
  43.20   43.57    638.53    457.55    622.39     970.8    21.71    813.78   21.02   False
  43.40   43.77    659.50    461.79    619.96     989.3    21.27    775.88   20.34   False
  43.60   43.97    620.26    433.88    617.53    935.56    21.05    741.83   20.21   False
  43.80   44.17    535.03    383.89    615.10    858.98    20.78    653.32   19.86   False
  44.00   44.37    429.80    327.08    612.66    747.31    19.91    644.53   19.46   False
  44.20   44.57    330.59    276.74    610.23    612.06     19.8    536.06   19.45   False
  44.40   44.77    254.43    239.27    607.80    593.74    19.54    552.90   19.36   False
  44.60   44.97    206.65    213.71    605.37    530.94    19.27    489.24   19.07   False
  44.80   45.17    183.37    194.94    603.37    528.63    19.13    500.05   19.00   False
  45.00   45.37    176.32    177.69    603.11    469.52    19.06    430.64   18.87   False
  45.20   45.57    177.33    159.12    602.85    534.29    19.03    473.40   18.74   False
  45.40   45.77    181.34    139.42    602.59    525.74    19.05    434.18   18.61   False
  45.60   45.97    187.83    121.13    602.33    550.94    19.36    430.33   18.78   False
  45.80   46.17    200.72    108.24    602.07    506.21    19.46    369.13   18.80   False
  46.00   46.37    226.79    105.36    601.81     552.6    19.45    408.85   18.76   False
  46.20   46.57    273.01    117.10    601.55    553.46    19.66    382.02   18.84   False
  46.40   46.77    343.61    147.04    601.29    687.62    19.99    445.80   18.86   False
  46.60   46.97    437.58    196.30    601.02    788.41    20.57    527.19   19.39   False
  46.80   47.17    547.33    261.93    600.76    865.62    21.07    582.79   19.80   False
  47.00   47.37    658.88    336.10    600.50    989.21    21.73    621.68   20.12   False
  47.20   47.57    754.35    407.02    600.24   1036.96    21.86    704.48   20.41   False
  47.40   47.77    816.92    462.23    599.98   1098.85    22.19    779.26   20.82   False
  47.60   47.97    836.78    493.08    599.72   1102.77    22.26    749.03   20.76   False
  47.80   48.17    815.57    498.31    599.46   1075.87    21.73    806.10   20.60   False
  48.00   48.37    766.69    484.69    599.20   1080.76    22.09    777.22   20.78   False
  48.20   48.57    710.86    464.14    598.94    966.23    21.67    775.51   20.84   False
  48.40   48.77    668.76    448.80    598.68    931.75    21.65    720.35   20.71   False
  48.60   48.97    653.91    446.31    598.42     951.5    21.58    724.42   20.58   False
  48.80   49.17    668.58    457.38    598.16   1002.48    21.72    756.01   20.64   False
  49.00   49.37    703.77    476.05    597.90   1031.25    20.95    788.10   19.94   False
  49.20   49.57    742.68    492.31    597.64    1069.0    21.06    796.87   19.93   False
  49.40   49.77    766.38    495.76    597.38   1083.97    21.42    778.77   20.16   False
  49.60   49.97    759.85    479.09    597.12   1064.51    21.38    774.61   20.16   False
  49.80   50.17    716.50    440.37    596.86    974.36    21.06    687.69   19.84   False
  50.00   50.37    639.87    383.48    596.60    951.34    20.77    694.11   19.66   False
  50.20   50.57    541.87    316.59    596.34     804.2    20.45    559.25   19.39   False
  50.40   50.77    438.46    249.53    596.08    714.32    19.84    494.37   18.89   False
  50.60   50.97    344.66    190.90    595.82    623.51    19.99    430.84   19.13   False
  50.80   51.17    270.59    146.21    595.56    586.16     19.9    364.58   18.88   False
  51.00   51.37    219.87    117.22    595.29    543.88    19.66    424.13   19.12   False
  51.20   51.57    190.35    102.57    595.03    488.87    19.43    342.94   18.76   False
  51.40   51.77    176.32     99.04    594.77    447.83    19.32    354.02   18.90   False
  51.60   51.97    171.25    102.94    594.51    513.26    19.42    340.74   18.63   False
  51.80   52.17    169.80    110.97    594.25    460.48    19.29    365.78   18.86   False
  52.00   52.37    168.78    120.61    593.99    478.07    19.69    385.82   19.27   False
  52.20   52.57    167.02    130.00    593.73     469.2    19.64    416.23   19.40   False
  52.40   52.77    164.54    137.70    593.47    457.61    19.69    420.67   19.53   False
  52.60   52.97    161.71    142.48    593.21    436.64    19.66    387.20   19.42   False
  52.80   53.17    158.77    143.48    592.95    469.28     19.9    363.95   19.42   False
  53.00   53.37    155.80    140.45    592.69    454.48    19.45    393.31   19.17   False
  53.20   53.57    153.19    134.08    592.43    433.11    19.83    384.81   19.61   False
  53.40   53.77    152.14    126.21    592.17    452.99    19.92    393.66   19.66   False
  53.60   53.97    154.95    119.70    591.91    460.91    20.11    385.75   19.77   False
  53.80   54.17    164.84    118.05    591.65    479.42    20.05    372.58   19.56   False
  54.00   54.37    185.18    124.68    591.39    514.08    20.17    406.62   19.69   False
  54.20   54.57    218.35    142.09    591.13    520.71    20.18    373.26   19.53   False
  54.40   54.77    264.51    171.10    590.87    556.73    20.36    444.45   19.87   False
  54.60   54.97    320.81    210.30    590.61    640.13    20.93    460.57   20.15   False
  54.80   55.17    381.55    256.27    590.35    772.45    21.23    619.57   20.56   False
  55.00   55.37    439.24    304.16    590.09    745.57    21.06    596.61   20.42   False
  55.20   55.57    486.44    348.88    589.83    827.09    21.06    654.50   20.32   False
  55.40   55.77    517.60    386.17    589.57     863.2    19.97    682.19   19.24   False
  55.60   55.97    530.35    413.28    589.30    816.19    19.45    712.54   19.04   False
  55.80   56.17    525.66    429.07    589.04    802.26    19.82    725.82   19.50   False
  56.00   56.37    507.06    433.58    588.78    762.03    19.72    668.88   19.34   False
  56.20   56.57    479.27    427.51    588.52    748.92    19.44    690.69   19.19   False
  56.40   56.77    446.93    411.85    588.26    764.06    19.41    674.79   19.05   False
  56.60   56.97    413.74    387.83    588.00    673.13    19.15    624.78   18.95   False
  56.80   57.17    382.19    357.11    587.74    658.88    18.93    591.05   18.65   False
  57.00   57.37    353.86    321.96    587.48    656.83    18.95    574.08   18.59   False
  57.20   57.57    329.73    285.27    587.22    647.48     19.0    549.50   18.58   False
  57.40   57.77    310.59    250.24    586.96    632.71    19.01    532.24   18.58   False
  57.60   57.97    297.18    219.99    586.70    579.93    18.76    485.92   18.35   False
  57.80   58.17    290.15    197.08    586.44    559.33    18.67    495.27   18.41   False
  58.00   58.37    290.00    183.26    586.18    578.68    18.69    409.25   17.96   False
  58.20   58.57    297.04    179.39    585.92    584.81    18.83    417.08   18.11   False
  58.40   58.77    311.29    185.55    585.66    575.37    19.05    432.76   18.46   False
  58.60   58.97    332.52    201.17    585.40    603.54    19.11    447.21   18.45   False
  58.80   59.17    360.17    225.13    585.14    640.61    19.32    474.09   18.60   False
  59.00   59.37    393.13    255.68    584.88     684.9    19.35    529.04   18.68   False
  59.20   59.57    429.57    290.39    584.62    710.68    19.57    544.50   18.87   False
  59.40   59.77    466.74    326.06    584.36    787.38    19.55    615.82   18.84   False
  59.60   59.97    501.10    358.94    584.10    809.81    20.02    642.48   19.34   False
  59.80   60.17    528.71    385.12    583.84    823.77    19.97    695.08   19.44   False
  60.00   60.37    545.91    401.18    583.57    826.28    20.05    698.82   19.54   False
  60.20   60.57    550.11    404.83    583.31    838.05    20.14    678.24   19.49   False
  60.40   60.77    540.34    395.41    583.05    754.59     19.7    635.75   19.21   False
  60.60   60.97    517.46    373.98    582.79    714.59    19.58    604.37   19.14   False
  60.80   61.17    483.93    343.08    582.53    688.71    19.42    583.78   19.01   False
  61.00   61.37    443.19    306.09    582.27    696.51    19.61    582.59   19.13   False
  61.20   61.57    398.90    266.61    582.01    675.24    19.53    569.00   19.08   False
  61.40   61.77    354.32    227.85    581.75    613.01    19.43    457.24   18.76   False
  61.60   61.97    311.96    192.24    581.49     637.1    19.31    470.77   18.60   False
  61.80   62.17    273.49    161.35    581.23    544.48    19.14    396.37   18.50   False
  62.00   62.37    239.94    135.99    580.97    516.27    18.73    352.58   18.03   False
  62.20   62.57    212.00    116.43    580.71    455.27    18.93    362.03   18.51   False
  62.40   62.77    190.26    102.66    580.45    474.72     19.0    379.43   18.60   False
  62.60   62.97    175.29     94.52    580.19    456.16    18.89    383.13   18.55   False
  62.80   63.17    167.65     91.81    579.93    466.05    18.86    356.88   18.37   False
  63.00   63.37    167.73     94.27    579.67    456.94    18.38    326.35   17.84   False
  63.20   63.57    175.64    101.63    579.41    440.41    18.02    354.34   17.65   False
  63.40   63.77    191.25    113.59    579.15    512.77    18.29    418.84   17.88   False
  63.60   63.97    214.23    129.93    578.89    488.59    18.45    414.36   18.14   False
  63.80   64.17    244.26    150.62    578.63    548.22    18.59    454.19   18.17   False
  64.00   64.37    281.13    175.82    578.37    630.73    18.73    492.07   18.14   False
  64.20   64.57    324.76    205.84    578.11    605.66    18.78    437.66   18.07   False
  64.40   64.77    374.96    240.90    577.84    659.66    18.98    516.44   18.38   False
  64.60   64.97    431.05    280.81    577.58    782.99     19.1    592.39   18.33   False
  64.80   65.17    491.40    324.59    577.32    839.92     19.7    625.32   18.81   False
  65.00   65.37    553.18    370.33    577.06     919.4    19.95    696.39   19.04   False
  65.20   65.57    612.35    415.14    576.80    924.99    20.01    707.15   19.14   False
  65.40   65.77    664.15    455.50    576.54    1017.5    20.21    801.94   19.36   False
  65.60   65.97    703.77    487.79    576.28   1000.25    20.27    785.10   19.42   False
  65.80   66.17    727.28    508.95    576.02   1035.91    20.12    838.97   19.36   False
  66.00   66.37    732.36    517.04    575.76   1062.77    20.26    814.77   19.29   False
  66.20   66.57    718.76    511.54    575.50   1023.34    20.31    820.36   19.51   False
  66.40   66.77    688.26    493.46    575.24     950.9    20.05    786.30   19.38   False
  66.60   66.97    644.30    464.99    574.98    901.83    19.85    723.91   19.11   False
  66.80   67.17    591.30    429.16    574.72    858.09    19.68    703.26   19.04   False
  67.00   67.37    533.98    389.26    574.46    788.71    19.33    663.21   18.81   False
  67.20   67.57    476.71    348.46    574.20    818.61    19.15    622.00   18.35   False
  67.40   67.77    423.11    309.50    573.94    731.56    19.16    609.02   18.65   False
  67.60   67.97    375.84    274.53    573.68    699.64    19.07    587.80   18.58   False
  67.80   68.17    336.67    245.07    573.30    615.29    18.76    508.89   18.30   False
  68.00   68.37    306.48    222.08    572.84    584.64    18.69    450.59   18.11   False
  68.20   68.57    285.51    206.02    572.38    610.66    18.77    481.61   18.19   False
  68.40   68.77    273.40    196.89    571.91    515.66    18.57    438.07   18.22   False
  68.60   68.97    269.35    194.30    571.45    566.21    18.84    513.38   18.61   False
  68.80   69.17    272.19    197.47    570.99    557.98    19.09    489.74   18.80   False
  69.00   69.37    280.44    205.26    570.53    590.37     19.1    496.35   18.68   False
  69.20   69.57    292.41    216.28    570.07    602.21     19.1    494.58   18.61   False
  69.40   69.77    306.33    228.92    569.61    610.71    19.04    558.70   18.80   False
  69.60   69.97    320.44    241.54    569.15    631.87    19.24    495.94   18.65   False
  69.80   70.17    333.17    252.65    568.69    614.17    19.33    526.89   18.93   False
  70.00   70.37    343.24    261.03    568.23    591.01    19.73    555.20   19.57   False
  70.20   70.57    349.81    265.94    567.77    682.02     19.9    570.09   19.41   False
  70.40   70.77    352.54    267.16    567.31    671.82    19.93    558.63   19.42   False
  70.60   70.97    351.57    265.03    566.85    620.64    19.65    564.74   19.40   False
  70.80   71.17    347.51    260.36    566.39     672.9    19.91    521.03   19.23   False
  71.00   71.37    341.28    254.29    565.93    623.43    19.82    521.46   19.37   False
  71.20   71.57    333.96    248.14    565.46     650.8    20.39    527.79   19.83   False
  71.40   71.77    326.64    243.11    565.00     656.9    20.31    562.97   19.88   False
  71.60   71.97    320.22    240.20    564.54    610.22    20.36    494.24   19.83   False
  71.80   72.17    315.36    240.00    564.08    570.86     20.2    472.73   19.73   False
  72.00   72.37    312.32    242.67    563.62    576.21    20.21    466.77   19.70   False
  72.20   72.57    311.07    247.93    563.16    611.69    20.39    520.16   19.97   False
  72.40   72.77    311.31    255.16    562.70    659.55    20.73    527.62   20.12   False
  72.60   72.97    312.57    263.55    562.24    614.16    20.83    557.11   20.54   False
  72.80   73.17    314.38    272.22    561.78    639.04    21.14    550.08   20.71   False
  73.00   73.37    316.34    280.43    561.32    596.43    20.82    572.05   20.70   False
  73.20   73.57    318.27    287.65    560.86    557.56    20.74    532.20   20.61   False
  73.40   73.77    320.23    293.70    560.40    562.18    20.65    539.59   20.54   False
  73.60   73.97    322.48    298.67    559.94    614.91    20.34    573.38   20.15   False
  73.80   74.17    325.44    302.91    559.48    648.89    20.81    601.64   20.60   False
  74.00   74.37    329.55    306.91    559.01    644.83     20.9    598.98   20.67   False
  74.20   74.57    335.17    311.10    558.55    647.35    20.85    604.49   20.66   False
  74.40   74.77    342.41    315.78    558.09    625.47    20.75    583.45   20.56   False
  74.60   74.97    351.10    320.97    557.63    659.67    20.98    571.60   20.56   False
  74.80   75.17    360.75    326.39    557.17    598.98    20.63    555.60   20.43   False
  75.00   75.37    370.60    331.49    556.71    649.05     21.1    590.07   20.82   False
  75.20   75.57    379.71    335.52    556.25    720.45    21.57    600.83   21.01   False
  75.40   75.77    387.12    337.71    555.79    704.04    21.52    644.58   21.24   False
  75.60   75.97    392.02    337.35    555.33     639.5    21.38    591.09   21.14   False
  75.80   76.17    393.81    334.01    554.87    681.64    21.39    628.85   21.15   False
  76.00   76.37    392.28    327.54    554.41    717.42    21.59    602.84   21.04   False
  76.20   76.57    387.54    318.18    553.95    691.49    21.53    616.86   21.16   False
  76.40   76.77    380.10    306.50    553.49    666.95    21.93    634.47   21.77   False
  76.60   76.97    370.72    293.37    553.03    670.42    22.02    540.49   21.38   False
  76.80   77.17    360.36    279.81    552.56    627.38    21.94    483.20   21.22   False
  77.00   77.37    350.03    266.91    552.10    554.07    21.69    521.92   21.53   False
  77.20   77.57    340.69    255.68    551.64    578.27    21.76    535.31   21.53   False
  77.40   77.77    333.16    246.96    551.18    603.68    21.85    443.49   21.07   False
  77.60   77.97    328.03    241.36    550.72    612.98    22.41    433.23   21.49   False
  77.80   78.17    325.62    239.16    550.26    636.95     22.6    496.25   21.89   False
  78.00   78.37    326.01    240.38    549.80    602.01    22.52    449.83   21.72   False
  78.20   78.57    329.00    244.72    549.34    605.13    22.55    514.09   22.08   False
  78.40   78.77    334.17    251.66    548.88    618.76     22.5    485.65   21.80   False
  78.60   78.97    340.98    260.50    548.42    583.18    22.41    487.78   21.93   False
  78.80   79.17    348.74    270.44    547.96    586.35    22.52    510.53   22.15   False
  79.00   79.37    356.78    280.63    547.50    633.06    23.39    538.35   22.92   False
  79.20   79.57    364.41    290.28    547.04    668.07    23.68    592.58   23.30   False
  79.40   79.77    371.05    298.69    546.58    673.48    23.59    539.33   22.89   False
  79.60   79.97    376.21    305.30    546.11    620.36    23.39    568.03   23.12   False
  79.80   80.17    379.53    309.74    545.65    697.11    23.49    609.58   23.03   False
  80.00   80.37    380.82    311.81    545.19    696.35    23.69    559.43   23.00   False

loop_phase1
_pd_peak_index_h
_pd_peak_index_k
_pd_peak_index_l
_pd_peak_2theta
_pd_peak_intensity_plus
_pd_peak_intensity_minus
   1    1   1    7.75   3918.76   1216.48
   2    0   0    9.01   1147.31   1147.31
   2    2   0   12.92    461.05    638.78
   3    1   1   15.22   1258.23    869.79
   2    2   2   15.92    925.81    253.60
   4    0   0   18.46    267.70   1257.42
   3    3   1   20.17   3254.01   1303.37
   4    2   0   20.71    139.94    139.94
   4    2   2   22.75    648.45    502.73
   3    3   3   24.17     81.87    405.73
   5    1   1   24.17   1711.27    484.44
   4    4   0   26.39   1963.63    676.01
   5    3   1   27.64    998.92    540.37
   4    4   2   28.04    153.60    153.60
   6    0   0   28.04     75.87     75.87
   6    2   0   29.61     92.48    238.75
   5    3   3   30.75    175.29    135.95
   6    2   2   31.11    554.49    119.32
   4    4   4   32.55     36.06    194.19
   7    1   1   33.60    601.42    330.53
   5    5   1   33.60     91.11    189.41
   6    4   0   33.94    115.70    115.70
   6    4   2   35.28    141.61    105.39
   5    5   3   36.25    486.85    229.96
   7    3   1   36.25     96.58    249.53
   8    0   0   37.83    347.64    127.48
   7    3   3   38.75   1568.76    734.38
   6    4   4   39.05     66.06     66.06
   8    2   0   39.05      6.07      6.07
   6    6   0   40.24    254.37    131.11
   8    2   2   40.24    429.40    457.65
   5    5   5   41.12    405.70    165.17
   7    5   1   41.12    331.02    208.35
   6    6   2   41.41    253.52     47.10
   8    4   0   42.55     42.86    158.63
   7    5   3   43.39    837.50    561.69
   9    1   1   43.39    106.32     27.65
   8    4   2   43.66     46.15     46.15
   6    6   4   44.76    108.87    210.12
   9    3   1   45.56    195.32     89.15
   8    4   4   46.88    367.35     95.04
   7    7   1   47.66    643.85    354.65
   7    5   5   47.66     71.16     42.45
   9    3   3   47.66    406.41    306.96
   8    6   0   47.92     17.06     17.06
  10    0   0   47.92     11.85     11.85
   8    6   2   48.94    183.20    151.58
  10    2   0   48.94    227.98    178.09
   7    7   3   49.69     55.92    226.86
   9    5   1   49.69    833.08    370.19
  10    2   2   49.94    148.66     26.77
   6    6   6   49.94     49.55      8.92
   9    5   3   51.66    179.62     66.04
  10    4   0   51.90     29.36     29.36
   8    6   4   51.90     31.51     31.51
  10    4   2   52.87    133.70    177.85
   7    7   5   53.58     16.89     14.54
  11    1   1   53.58    112.22     58.28
   8    8   0   54.76     73.87     15.86
   9    5   5   55.46     12.06     58.95
   9    7   1   55.46    319.77    233.01
  11    3   1   55.46    487.02    269.14
  10    4   4   55.69     19.79     19.79
   8    8   2   55.69     12.59     12.59
   8    6   6   56.61     17.05     13.51
  10    6   0   56.61    357.32    477.29
   9    7   3   57.29     26.71     35.25
  11    3   3   57.29      8.82     43.33
  10    6   2   57.52    199.15     38.43
  12    0   0   58.42      4.30     22.59
   8    8   4   58.42    158.27     43.72
  11    5   1   59.09     57.60     32.80
   7    7   7   59.09    259.23    157.79
  12    2   0   59.31      0.51      0.51
  10    6   4   60.20    531.14    392.76
  12    2   2   60.20    272.27    267.36
  11    5   3   60.85    113.02     60.52
   9    7   5   60.85    174.49    113.06
  12    4   0   61.94    247.82    105.64
   9    9   1   62.59     29.37      5.91
  12    4   2   62.80      5.71      5.71
   8    8   6   62.80      7.65      7.65
  10    8   0   62.80      8.90      8.90
  10    8   2   63.66     11.04     11.66
  11    7   1   64.30     27.48      9.45
  11    5   5   64.30    233.17    195.24
  13    1   1   64.30     41.75     14.40
   9    9   3   64.30     62.68     26.27
  10    6   6   64.51     72.73     15.98
  12    4   4   65.35     35.45      6.72
  11    7   3   65.98    776.19    485.56
   9    7   7   65.98    271.51    227.83
  13    3   1   65.98    477.27    361.08
  10    8   4   66.19     14.11     14.11
  12    6   0   66.19      2.28      2.28
  12    6   2   67.03    139.69    149.18
  13    3   3   67.65     28.74     44.94
   9    9   5   67.65    277.28    153.40
   8    8   8   68.68      3.53     16.81
  11    7   5   69.29    193.63    124.08
  13    5   1   69.29    105.54     38.32
  14    0   0   69.50      2.26      2.26
  12    6   4   69.50      5.48      5.48
  14    2   0   70.31     72.14     82.11
  10    8   6   70.31     72.44    103.13
  10   10   0   70.31    283.75    237.56
  11    9   1   70.92    155.99    122.46
  13    5   3   70.92     35.65     11.90
  10   10   2   71.12     56.54     14.49
  14    2   2   71.12     56.54     14.49
  12    8   0   71.93     66.15     19.69
   9    9   7   72.53     78.88     54.71
  11    9   3   72.53    219.78    177.13
  14    4   0   72.73      6.68      6.68
  12    8   2   72.73      6.20      6.20
  10   10   4   73.53    308.61    370.41
  14    4   2   73.53     50.99     42.03
  12    6   6   73.53      7.01      5.60
  11    7   7   74.13      9.46     38.91
  13    5   5   74.13    151.10     85.41
  13    7   1   74.13      7.92     13.50
  12    8   4   75.12     17.67      9.45
  11    9   5   75.71     15.79      9.75
  15    1   1   75.71      9.60      3.82
  13    7   3   75.71    719.67    652.03
  10    8   8   75.91      3.49      3.49
  14    4   4   75.91      5.09      5.09
  14    6   0   76.70    229.04    194.60
  15    3   1   77.29     96.83     53.63
  10   10   6   77.48     46.10     13.79
  14    6   2   77.48     92.20     27.58
   9    9   9   78.85      3.30      0.90
  13    7   5   78.85    243.27    194.48
  15    3   3   78.85    147.27     99.27
  11   11   1   78.85     69.18     38.03
  12    8   6   79.05      4.37      4.37
  12   10   0   79.05      1.96      1.96
  14    6   4   79.83    205.53    248.08
  12   10   2   79.83     15.42     13.38
  11    9   7   80.41     19.86     10.79
  15    5   1   80.41    388.53    335.30
  11   11   3   80.41      5.31      2.35
  13    9   1   80.41     82.35     35.14
  16    0   0   81.38    106.94     79.22
  15    5   3   81.96     32.82     17.55
  13    9   3   81.96    301.74    224.69
  14    8   0   82.16      2.97      2.97
  12   10   4   82.16      3.56      3.56
  16    2   0   82.16      0.06      0.06
  10   10   8   82.93    126.88    105.08
  14    8   2   82.93     11.42      9.09
  16    2   2   82.93     68.19     68.85
  11   11   5   83.51     77.21     54.66
  13    7   7   83.51     36.89     45.55
  14    6   6   83.70     39.06     13.49

loop_phase1
_refln_index_h
_refln_index_k
_refln_index_l
_refln_a_calc
_refln_b_calc
   1    1   1     6.8985   0.0000
   2    0   0     0.0000   0.0000
   2    2   0     1.7014   0.0000
   3    1   1    -4.6134   0.0000
   2    2   2     7.3152   0.0000
   4    0   0   -19.7654   0.0000
   3    3   1   -20.5082   0.0000
   4    2   0    -0.0000   0.0000
   4    2   2    -7.1176   0.0000
   3    3   3    -8.9963   0.0000
   5    1   1    16.0677   0.0000
   4    4   0    28.9796   0.0000
   5    3   1    -9.0540   0.0000
   4    4   2    -0.0000   0.0000
   6    0   0    -0.0000   0.0000
   6    2   0     7.4154   0.0000
   5    3   3    -2.4580   0.0000
   6    2   2     7.3152   0.0000
   4    4   4    -8.9331   0.0000
   7    1   1   -14.7246   0.0000
   5    5   1    -2.4003   0.0000
   6    4   0     0.0000   0.0000
   6    4   2    -1.9992   0.0000
   5    5   3   -13.9122   0.0000
   7    3   1     3.2127   0.0000
   8    0   0    24.4662   0.0000
   7    3   3    28.3343   0.0000
   6    4   4    -0.0000   0.0000
   8    2   0     0.0000   0.0000
   6    6   0   -16.5321   0.0000
   8    2   2    17.0472   0.0000
   5    5   5    25.3665   0.0000
   7    5   1    -8.2416   0.0000
   6    6   2     7.3152   0.0000
   8    4   0    -4.4196   0.0000
   7    5   3   -16.8801   0.0000
   9    1   1     5.1795   0.0000
   8    4   2    -0.0000   0.0000
   6    6   4    11.1159   0.0000
   9    3   1    -6.3324   0.0000
   8    4   4    13.6339   0.0000
   7    7   1   -22.5507   0.0000
   7    5   5    -5.4258   0.0000
   9    3   3   -18.7892   0.0000
   8    6   0    -0.0000   0.0000
  10    0   0    -0.0000   0.0000
   8    6   2    -7.9304   0.0000
  10    2   0   -15.0126   0.0000
   7    7   3   -11.0388   0.0000
   9    5   1    17.7867   0.0000
  10    2   2     7.3152   0.0000
   6    6   6     7.3152   0.0000
   9    5   3    -7.3350   0.0000
  10    4   0    -0.0000   0.0000
   8    6   4     0.0000   0.0000
  10    4   2     9.5964   0.0000
   7    7   5    -0.4155   0.0000
  11    1   1    -9.5460   0.0000
   8    8   0     9.1204   0.0000
   9    5   5    -4.1193   0.0000
   9    7   1   -13.0056   0.0000
  11    3   1   -15.5756   0.0000
  10    4   4     0.0000   0.0000
   8    8   2    -0.0000   0.0000
   8    6   6    -1.1863   0.0000
  10    6   0    24.1293   0.0000
   9    7   3     1.4937   0.0000
  11    3   3    -4.0637   0.0000
  10    6   2     7.3152   0.0000
  12    0   0    -6.9774   0.0000
   8    8   4    10.9262   0.0000
  11    5   1    -4.1214   0.0000
   7    7   7    30.3768   0.0000
  12    2   0     0.0000   0.0000
  10    6   4   -18.7132   0.0000
  12    2   2   -19.9056   0.0000
  11    5   3    -7.3906   0.0000
   9    7   5    -9.9606   0.0000
  12    4   0    16.1916   0.0000
   9    9   1     3.4605   0.0000
  12    4   2    -0.0000   0.0000
   8    8   6    -0.0000   0.0000
  10    8   0     0.0000   0.0000
  10    8   2     0.3332   0.0000
  11    7   1    -1.7199   0.0000
  11    5   5   -18.8448   0.0000
  13    1   1     6.0459   0.0000
   9    9   3    -8.0514   0.0000
  10    6   6     7.3152   0.0000
  12    4   4     3.8549   0.0000
  11    7   3    23.4017   0.0000
   9    7   7   -20.8317   0.0000
  13    3   1   -19.0757   0.0000
  10    8   4    -0.0000   0.0000
  12    6   0     0.0000   0.0000
  12    6   2    10.7888   0.0000
  13    3   3     7.5638   0.0000
   9    9   5    19.5057   0.0000
   8    8   8    -6.2254   0.0000
  11    7   5   -11.9475   0.0000
  13    5   1     7.6215   0.0000
  14    0   0    -0.0000   0.0000
  12    6   4    -0.0000   0.0000
  14    2   0    12.2267   0.0000
  10    8   6     8.7836   0.0000
  10   10   0   -31.7266   0.0000
  11    9   1   -11.2650   0.0000
  13    5   3    -3.8905   0.0000
  10   10   2     7.3152   0.0000
  14    2   2     7.3152   0.0000
  12    8   0     8.3684   0.0000
   9    9   7   -11.2866   0.0000
  11    9   3   -13.8566   0.0000
  14    4   0     0.0000   0.0000
  12    8   2    -0.0000   0.0000
  10   10   4    26.3104   0.0000
  14    4   2    -6.8106   0.0000
  12    6   6    -1.6721   0.0000
  11    7   7    -6.1062   0.0000
  13    5   5    15.3447   0.0000
  13    7   1     1.7802   0.0000
  12    8   4     0.8458   0.0000
  11    9   5    -2.4024   0.0000
  15    1   1    -2.7881   0.0000
  13    7   3   -26.9018   0.0000
  10    8   8    -0.0000   0.0000
  14    4   4     0.0000   0.0000
  14    6   0   -21.3435   0.0000
  15    3   1    -8.7239   0.0000
  10   10   6     7.3152   0.0000
  14    6   2     7.3152   0.0000
   9    9   9     1.7415   0.0000
  13    7   5   -15.4476   0.0000
  15    3   3    16.3978   0.0000
  11   11   1   -10.6431   0.0000
  12    8   6     0.0000   0.0000
  12   10   0     0.0000   0.0000
  14    6   4    15.9273   0.0000
  12   10   2    -3.1916   0.0000
  11    9   7    -3.4389   0.0000
  15    5   1   -20.1781   0.0000
  11   11   3     0.8689   0.0000
  13    9   1     7.7649   0.0000
  16    0   0    29.1555   0.0000
  15    5   3    -4.9435   0.0000
  13    9   3   -17.3567   0.0000
  14    8   0    -0.0000   0.0000
  12   10   4    -0.0000   0.0000
  16    2   0     0.0000   0.0000
  10   10   8   -16.3808   0.0000
  14    8   2    -3.1191   0.0000
  16    2   2    12.3580   0.0000
  11   11   5   -12.3231   0.0000
  13    7   7     9.6063   0.0000
  14    6   6     7.3152   0.0000

