global_

data_powder1

_setup_wavelength 0.8400
_setup_field 1.00
_setup_offset_2theta -0.383

_pd_instr_resolution_U 15.64090
_pd_instr_resolution_V -2.47060
_pd_instr_resolution_W 0.55080
_pd_instr_resolution_X 0.00000
_pd_instr_resolution_Y 0.00000

_diffrn_radiation_polarization 0.88
_diffrn_radiation_efficiency 1.0

_chi2_sum True
_chi2_diff True
_chi2_up False
_chi2_down False

_range_2theta_min 4.0
_range_2theta_max 80.0

_pd_instr_reflex_asymmetry_p1 0.0
_pd_instr_reflex_asymmetry_p2 0.0
_pd_instr_reflex_asymmetry_p3 0.0
_pd_instr_reflex_asymmetry_p4 0.0

loop_
_phase_label
_phase_scale
_phase_igsize
  phase1   0.024678(78)   0.0

loop_
_pd_background_2theta
_pd_background_intensity
    5.0   1291(9)
   14.0    965(3)
  28.79    830(2)
  44.76    630(2)
  67.68    570(2)
   82.0    525(3)

loop_
_pd_meas_2theta
_pd_meas_intensity_plus
_pd_meas_intensity_plus_sigma
_pd_meas_intensity_minus
_pd_meas_intensity_minus_sigma
   4.6    626.97    93.64    413.31   90.64
   4.8    708.72    91.83    749.57   92.55
   5.0    718.07    89.38    575.64   87.29
   5.2    679.62    86.86    595.28   85.63
   5.4    683.03    84.66    580.64   83.17
   5.6    727.63    83.54    705.12   83.16
   5.8    709.16    83.16    653.77   82.39
   6.0     765.5    81.54    654.01   79.82
   6.2     813.4    80.76    865.23   81.57
   6.4     613.4    78.81    727.05   80.57
   6.6    530.91    76.38    458.89   75.37
   6.8    892.05    79.61    610.54   75.48
   7.0    932.68    79.59    733.16   76.68
   7.2   1611.08    89.13    863.58    79.1
   7.4   3505.62   109.22   1711.89   88.84
   7.6   5658.21   131.62   2033.16    95.3
   7.8   5454.61   124.07   2091.49   91.29
   8.0   3593.33    88.07   1460.03   68.68
   8.2   1720.63    70.73     906.5   61.95
   8.4    974.33    61.94    877.03   60.86
   8.6   1670.12    68.42   1546.15   67.16
   8.8   2380.65    76.38   2531.38   77.76
   9.0   2816.17     80.7   2649.69   79.25
   9.2    2271.4    72.72   2171.75   71.75
   9.4   1246.23    62.53   1157.09   61.57
   9.6    674.62    56.73    593.59   55.76
   9.8    690.47    55.49    574.28   54.09
  10.0    650.11    54.77    447.35   52.21
  10.2    497.37    53.33    447.73   52.69
  10.4    549.61     52.2    475.87   51.27
  10.6    619.58    53.45    436.48   51.27
  10.8    631.83    52.53    653.12   52.77
  11.0    459.72    51.33    493.73   51.79
  11.2    439.19    51.03    571.14   52.61
  11.4    455.23     51.0    406.06   50.45
  11.6    538.38    50.19     536.0   50.17
  11.8    573.93    46.73    579.49   46.81
  12.0    502.59    37.94    624.97   39.05
  12.2    382.09    37.94     483.5   38.88
  12.4    548.98    38.74    632.66   39.48
  12.6    759.49    40.63    910.88   41.91
  12.8    938.97    42.75   1051.91   43.68
  13.0    966.57    41.93   1127.24   43.23
  13.2    883.26    40.74    887.27   40.78
  13.4     599.7     38.5    592.61   38.42
  13.6    501.64    37.63    467.09   37.31
  13.8    406.53    37.28    396.74   37.19
  14.0    443.33    36.77    448.14   36.81
  14.2    397.42    36.61     482.8   37.39
  14.4    574.92    37.05    536.58   36.71
  14.6    672.48    38.06    514.49   36.69
  14.8    1218.7    42.36    956.73    40.3
  15.0   2038.32    48.33   1581.72   45.19
  15.2   2473.27    51.42    1823.2   47.18
  15.4   2408.49    51.36   1607.34   46.02
  15.6   1924.68    47.46   1161.06   42.19
  15.8   1843.13     46.2     916.4   39.55
  16.0   1535.92    40.56    739.87   35.15
  16.2   1223.09     38.0    704.68    34.3
  16.4    781.62    34.78    576.06   33.25
  16.6    619.03    33.13    497.22   32.16
  16.8    505.57    31.83    598.13   32.55
  17.0    513.34    31.68     462.2   31.27
  17.2    489.86    31.63    426.67   31.16
  17.4    451.39    31.36     501.7   31.76
  17.6    508.04    31.77    475.44   31.52
  17.8    581.81    32.38    541.25   32.05
  18.0    562.86    32.51    906.08   34.98
  18.2    766.89    33.35    1573.5   38.62
  18.4    817.74    33.59   2054.02   41.36
  18.6     796.7    33.16   1995.08   40.81
  18.8    750.51    32.89   1463.24   37.67
  19.0     484.9    31.53    800.24   33.81
  19.2    612.94    32.68    679.12   33.16
  19.4    781.23    34.38    676.61   33.67
  19.6   1289.18    38.78     876.5   36.32
  19.8   2615.92    46.49   1533.95   40.91
  20.0   4003.54    51.29   2123.31   42.79
  20.2   4419.98     50.0   2327.75   41.09
  20.4   3733.59    46.73   1967.75    38.7
  20.6   2353.72    39.82   1378.38   34.74
  20.8   1232.64    32.87    838.03   30.55
  21.0    766.54    29.84    696.61   29.41
  21.2    641.73     28.8    530.86   28.07
  21.4    527.51    27.72    561.44   27.95
  21.6    530.99    28.18    446.06   27.62
  21.8     490.1    28.25    494.58   28.27
  22.0    514.55     29.3    500.51   29.22
  22.2    533.06    32.35    467.21   31.99
  22.4    648.52    35.82    582.96    35.5
  22.6    917.85    38.65    732.61   37.78
  22.8    1039.3    39.21    799.88   38.09
  23.0    939.74    37.64    802.83   36.98
  23.2    699.73    35.78    518.17   34.86
  23.4     775.6    35.29    659.02   34.71
  23.6    928.82    36.02    793.95   35.33
  23.8   1633.96    37.75   1023.04   34.74
  24.0   2188.94    38.83    1296.8   34.47
  24.2   2444.96    38.05   1446.82   33.24
  24.4   2116.27    32.38   1214.12   28.23
  24.6   1543.45    29.04    942.93   26.11
  24.8    977.04    26.34    667.36   24.66
  25.0    628.41    24.67    492.07   23.89
  25.2    487.43    24.15    480.94   24.11
  25.4    497.39    24.17    447.33   23.88
  25.6    647.35    25.27     465.6   24.25
  25.8   1052.79    27.22    625.33   24.98
  26.0    1649.1    29.87    849.44   25.96
  26.2   2207.57    32.63   1046.96   27.24
  26.4    2333.0    32.98   1095.76   27.27
  26.6   2142.82    32.02   1004.78   26.64
  26.8   1673.56    29.65    836.33   25.43
  27.0   1322.86    27.92    765.03   24.99
  27.2   1287.82    27.03    830.93   24.66
  27.4   1472.66    28.48   1048.04   26.34
  27.6   1567.65    29.09   1103.57   26.79
  27.8   1574.07    29.08   1100.41   26.74
  28.0   1399.46    27.96   1031.16   26.08
  28.2   1030.61    26.35    743.96    24.8
  28.4    758.88    24.54    606.56   23.69
  28.6    628.06    23.52    556.65   23.12
  28.8    445.17    21.95    382.78    21.6
  29.0    449.58    21.93    467.35   22.03
  29.2     503.8    22.35    448.32   22.03
  29.4    509.06    22.33    546.19   22.53
  29.6    497.25    22.31     507.6   22.37
  29.8    490.91    21.67    560.91   22.05
  30.0    462.58    22.04    470.28   22.09
  30.2    561.88    22.53    470.89   22.02
  30.4    611.56    22.93    457.03   22.07
  30.6    801.05    24.01    517.54   22.48
  30.8    996.87    24.87    583.47    22.7
  31.0   1032.46    24.83    530.61   22.22
  31.2     964.6    24.52    545.47   22.32
  31.4    813.86    24.21     450.4   22.26
  31.6    686.45    23.58     412.7   22.08
  31.8     549.7    22.98    454.26   22.45
  32.0    422.51    22.74    341.25   22.29
  32.2    395.75    22.67    454.49   22.99
  32.4    505.26    22.81    514.08   22.85
  32.6    592.33    23.73    597.95   23.76
  32.8    578.01     23.9    627.39   24.15
  33.0     690.8    24.41    637.12   24.14
  33.2    904.55    24.59    776.17   23.95
  33.4     963.1    24.19    867.92   23.74
  33.6   1014.36    24.24    828.51   23.38
  33.8   1026.12     24.2    829.64   23.28
  34.0    835.89    23.52    712.27   22.92
  34.2    763.65    22.83    579.33    21.9
  34.4    633.36    21.85    547.65    21.4
  34.6    522.38     21.3    495.49   21.16
  34.8    468.79    20.78    426.16   20.56
  35.0    516.68    21.05    450.68    20.7
  35.2    517.87    21.25    468.35   20.99
  35.4    564.38    21.54    497.42   21.18
  35.6    659.37    21.96     554.5   21.41
  35.8    739.31    22.34    640.63   21.83
  36.0    780.55    22.82    714.19   22.49
  36.2    813.37    22.41    736.49   22.03
  36.4    824.91    22.94    682.31   22.22
  36.6    699.62    22.55    579.61   21.93
  36.8    648.17    22.53    553.46   22.05
  37.0    618.88    22.13     477.1   21.39
  37.2    616.44    22.19    463.55   21.39
  37.4    606.81     22.1    436.42   21.22
  37.6    760.71    22.67    510.51    21.4
  37.8    823.09    23.34    539.36   21.91
  38.0   1037.79    24.07    670.68   22.32
  38.2   1246.18    23.53    772.13    21.5
  38.4   1453.93    24.36     901.2   22.05
  38.6   1511.67    24.69    929.03   22.29
  38.8   1552.58    24.28    959.34   21.89
  39.0   1442.43    24.36     875.0    22.0
  39.2   1255.67    23.54    811.69   21.64
  39.4   1091.87    23.01    718.89   21.39
  39.6    994.66    22.68    794.16   21.81
  39.8    951.74    22.64    758.71    21.8
  40.0    965.42    22.32    805.74   21.64
  40.2   1014.54    22.55    825.05   21.74
  40.4   1103.25    23.07     834.5   21.91
  40.6   1184.43    23.15    847.84   21.69
  40.8   1163.32     23.0     841.6    21.6
  41.0   1189.78    22.82    840.43   21.29
  41.2   1103.75    22.47    744.38   20.87
  41.4    987.65    21.68    651.18   20.18
  41.6    895.73    21.68    550.27   20.08
  41.8    770.71    21.06    536.03   19.96
  42.0    739.94    20.69    566.98   19.86
  42.2    611.68    20.21    497.18   19.66
  42.4    579.35    20.14    496.71   19.75
  42.6    674.59    20.47    612.71   20.18
  42.8    799.77     21.0    660.72   20.36
  43.0    918.99     21.8    759.38   21.07
  43.2     970.8    21.71    813.78   21.02
  43.4     989.3    21.27    775.88   20.34
  43.6    935.56    21.05    741.83   20.21
  43.8    858.98    20.78    653.32   19.86
  44.0    747.31    19.91    644.53   19.46
  44.2    612.06     19.8    536.06   19.45
  44.4    593.74    19.54     552.9   19.36
  44.6    530.94    19.27    489.24   19.07
  44.8    528.63    19.13    500.05    19.0
  45.0    469.52    19.06    430.64   18.87
  45.2    534.29    19.03     473.4   18.74
  45.4    525.74    19.05    434.18   18.61
  45.6    550.94    19.36    430.33   18.78
  45.8    506.21    19.46    369.13    18.8
  46.0     552.6    19.45    408.85   18.76
  46.2    553.46    19.66    382.02   18.84
  46.4    687.62    19.99     445.8   18.86
  46.6    788.41    20.57    527.19   19.39
  46.8    865.62    21.07    582.79    19.8
  47.0    989.21    21.73    621.68   20.12
  47.2   1036.96    21.86    704.48   20.41
  47.4   1098.85    22.19    779.26   20.82
  47.6   1102.77    22.26    749.03   20.76
  47.8   1075.87    21.73     806.1    20.6
  48.0   1080.76    22.09    777.22   20.78
  48.2    966.23    21.67    775.51   20.84
  48.4    931.75    21.65    720.35   20.71
  48.6     951.5    21.58    724.42   20.58
  48.8   1002.48    21.72    756.01   20.64
  49.0   1031.25    20.95     788.1   19.94
  49.2    1069.0    21.06    796.87   19.93
  49.4   1083.97    21.42    778.77   20.16
  49.6   1064.51    21.38    774.61   20.16
  49.8    974.36    21.06    687.69   19.84
  50.0    951.34    20.77    694.11   19.66
  50.2     804.2    20.45    559.25   19.39
  50.4    714.32    19.84    494.37   18.89
  50.6    623.51    19.99    430.84   19.13
  50.8    586.16     19.9    364.58   18.88
  51.0    543.88    19.66    424.13   19.12
  51.2    488.87    19.43    342.94   18.76
  51.4    447.83    19.32    354.02    18.9
  51.6    513.26    19.42    340.74   18.63
  51.8    460.48    19.29    365.78   18.86
  52.0    478.07    19.69    385.82   19.27
  52.2     469.2    19.64    416.23    19.4
  52.4    457.61    19.69    420.67   19.53
  52.6    436.64    19.66     387.2   19.42
  52.8    469.28     19.9    363.95   19.42
  53.0    454.48    19.45    393.31   19.17
  53.2    433.11    19.83    384.81   19.61
  53.4    452.99    19.92    393.66   19.66
  53.6    460.91    20.11    385.75   19.77
  53.8    479.42    20.05    372.58   19.56
  54.0    514.08    20.17    406.62   19.69
  54.2    520.71    20.18    373.26   19.53
  54.4    556.73    20.36    444.45   19.87
  54.6    640.13    20.93    460.57   20.15
  54.8    772.45    21.23    619.57   20.56
  55.0    745.57    21.06    596.61   20.42
  55.2    827.09    21.06     654.5   20.32
  55.4     863.2    19.97    682.19   19.24
  55.6    816.19    19.45    712.54   19.04
  55.8    802.26    19.82    725.82    19.5
  56.0    762.03    19.72    668.88   19.34
  56.2    748.92    19.44    690.69   19.19
  56.4    764.06    19.41    674.79   19.05
  56.6    673.13    19.15    624.78   18.95
  56.8    658.88    18.93    591.05   18.65
  57.0    656.83    18.95    574.08   18.59
  57.2    647.48     19.0     549.5   18.58
  57.4    632.71    19.01    532.24   18.58
  57.6    579.93    18.76    485.92   18.35
  57.8    559.33    18.67    495.27   18.41
  58.0    578.68    18.69    409.25   17.96
  58.2    584.81    18.83    417.08   18.11
  58.4    575.37    19.05    432.76   18.46
  58.6    603.54    19.11    447.21   18.45
  58.8    640.61    19.32    474.09    18.6
  59.0     684.9    19.35    529.04   18.68
  59.2    710.68    19.57     544.5   18.87
  59.4    787.38    19.55    615.82   18.84
  59.6    809.81    20.02    642.48   19.34
  59.8    823.77    19.97    695.08   19.44
  60.0    826.28    20.05    698.82   19.54
  60.2    838.05    20.14    678.24   19.49
  60.4    754.59     19.7    635.75   19.21
  60.6    714.59    19.58    604.37   19.14
  60.8    688.71    19.42    583.78   19.01
  61.0    696.51    19.61    582.59   19.13
  61.2    675.24    19.53     569.0   19.08
  61.4    613.01    19.43    457.24   18.76
  61.6     637.1    19.31    470.77    18.6
  61.8    544.48    19.14    396.37    18.5
  62.0    516.27    18.73    352.58   18.03
  62.2    455.27    18.93    362.03   18.51
  62.4    474.72     19.0    379.43    18.6
  62.6    456.16    18.89    383.13   18.55
  62.8    466.05    18.86    356.88   18.37
  63.0    456.94    18.38    326.35   17.84
  63.2    440.41    18.02    354.34   17.65
  63.4    512.77    18.29    418.84   17.88
  63.6    488.59    18.45    414.36   18.14
  63.8    548.22    18.59    454.19   18.17
  64.0    630.73    18.73    492.07   18.14
  64.2    605.66    18.78    437.66   18.07
  64.4    659.66    18.98    516.44   18.38
  64.6    782.99     19.1    592.39   18.33
  64.8    839.92     19.7    625.32   18.81
  65.0     919.4    19.95    696.39   19.04
  65.2    924.99    20.01    707.15   19.14
  65.4    1017.5    20.21    801.94   19.36
  65.6   1000.25    20.27     785.1   19.42
  65.8   1035.91    20.12    838.97   19.36
  66.0   1062.77    20.26    814.77   19.29
  66.2   1023.34    20.31    820.36   19.51
  66.4     950.9    20.05     786.3   19.38
  66.6    901.83    19.85    723.91   19.11
  66.8    858.09    19.68    703.26   19.04
  67.0    788.71    19.33    663.21   18.81
  67.2    818.61    19.15     622.0   18.35
  67.4    731.56    19.16    609.02   18.65
  67.6    699.64    19.07     587.8   18.58
  67.8    615.29    18.76    508.89    18.3
  68.0    584.64    18.69    450.59   18.11
  68.2    610.66    18.77    481.61   18.19
  68.4    515.66    18.57    438.07   18.22
  68.6    566.21    18.84    513.38   18.61
  68.8    557.98    19.09    489.74    18.8
  69.0    590.37     19.1    496.35   18.68
  69.2    602.21     19.1    494.58   18.61
  69.4    610.71    19.04     558.7    18.8
  69.6    631.87    19.24    495.94   18.65
  69.8    614.17    19.33    526.89   18.93
  70.0    591.01    19.73     555.2   19.57
  70.2    682.02     19.9    570.09   19.41
  70.4    671.82    19.93    558.63   19.42
  70.6    620.64    19.65    564.74    19.4
  70.8     672.9    19.91    521.03   19.23
  71.0    623.43    19.82    521.46   19.37
  71.2     650.8    20.39    527.79   19.83
  71.4     656.9    20.31    562.97   19.88
  71.6    610.22    20.36    494.24   19.83
  71.8    570.86     20.2    472.73   19.73
  72.0    576.21    20.21    466.77    19.7
  72.2    611.69    20.39    520.16   19.97
  72.4    659.55    20.73    527.62   20.12
  72.6    614.16    20.83    557.11   20.54
  72.8    639.04    21.14    550.08   20.71
  73.0    596.43    20.82    572.05    20.7
  73.2    557.56    20.74     532.2   20.61
  73.4    562.18    20.65    539.59   20.54
  73.6    614.91    20.34    573.38   20.15
  73.8    648.89    20.81    601.64    20.6
  74.0    644.83     20.9    598.98   20.67
  74.2    647.35    20.85    604.49   20.66
  74.4    625.47    20.75    583.45   20.56
  74.6    659.67    20.98     571.6   20.56
  74.8    598.98    20.63     555.6   20.43
  75.0    649.05     21.1    590.07   20.82
  75.2    720.45    21.57    600.83   21.01
  75.4    704.04    21.52    644.58   21.24
  75.6     639.5    21.38    591.09   21.14
  75.8    681.64    21.39    628.85   21.15
  76.0    717.42    21.59    602.84   21.04
  76.2    691.49    21.53    616.86   21.16
  76.4    666.95    21.93    634.47   21.77
  76.6    670.42    22.02    540.49   21.38
  76.8    627.38    21.94     483.2   21.22
  77.0    554.07    21.69    521.92   21.53
  77.2    578.27    21.76    535.31   21.53
  77.4    603.68    21.85    443.49   21.07
  77.6    612.98    22.41    433.23   21.49
  77.8    636.95     22.6    496.25   21.89
  78.0    602.01    22.52    449.83   21.72
  78.2    605.13    22.55    514.09   22.08
  78.4    618.76     22.5    485.65    21.8
  78.6    583.18    22.41    487.78   21.93
  78.8    586.35    22.52    510.53   22.15
  79.0    633.06    23.39    538.35   22.92
  79.2    668.07    23.68    592.58    23.3
  79.4    673.48    23.59    539.33   22.89
  79.6    620.36    23.39    568.03   23.12
  79.8    697.11    23.49    609.58   23.03
  80.0    696.35    23.69    559.43    23.0
  80.2     673.4    23.99     578.5   23.48
  80.4    715.34    24.45    631.24    24.0
  80.6    625.41    23.98     627.0   23.99
  80.8    659.25     24.3    600.44    24.0
  81.0    617.92     24.1    526.94   23.63
  81.2     643.9    24.21    551.74   23.72
  81.4    610.43    24.05    570.73   23.84
  81.6    687.21    25.11    535.41   24.27
  81.8    604.92    24.92    559.32   24.65
  82.0    589.97    24.97    499.26   24.46

loop_
_exclude_id
_exclude_2theta_min
_exclude_2theta_max
  1   0.0   1.0

loop_
_pd_proc_2theta
_pd_proc_intensity_plus_net
_pd_proc_intensity_minus_net
_pd_proc_intensity_bkg_calc
_pd_proc_intensity_plus
_pd_proc_intensity_plus_sigma
_pd_proc_intensity_minus
_pd_proc_intensity_minus_sigma
_pd_proc_excluded
   4.983      0.00      0.00   1291.45    626.97    93.64    413.31   90.64   False
   5.183      0.00      0.00   1291.45    708.72    91.83    749.57   92.55   False
   5.383      0.00      0.00   1291.45    718.07    89.38    575.64   87.29   False
   5.583      0.00      0.00   1284.20    679.62    86.86    595.28   85.63   False
   5.783      0.00      0.00   1276.95    683.03    84.66    580.64   83.17   False
   5.983      0.00      0.00   1269.70    727.63    83.54    705.12   83.16   False
   6.183      0.00      0.00   1262.45    709.16    83.16    653.77   82.39   False
   6.383      0.00      0.00   1255.20     765.5    81.54    654.01   79.82   False
   6.583      0.01      0.00   1247.96     813.4    80.76    865.23   81.57   False
   6.783      0.15      0.03   1240.71     613.4    78.81    727.05   80.57   False
   6.983      2.85      0.54   1233.46    530.91    76.38    458.89   75.37   False
   7.183     33.52      6.32   1226.21    892.05    79.61    610.54   75.48   False
   7.383    245.52     46.31   1218.96    932.68    79.59    733.16   76.68   False
   7.583   1115.41    210.37   1211.71   1611.08    89.13    863.58   79.10   False
   7.783   3132.86    590.87   1204.46   3505.62   109.22   1711.89   88.84   False
   7.983   5424.65   1023.12   1197.22   5658.21   131.62   2033.16   95.30   False
   8.183   5778.12   1090.04   1189.97   5454.61   124.07   2091.49   91.29   False
   8.383   3783.99    717.42   1182.72   3593.33    88.07   1460.03   68.68   False
   8.583   1557.01    326.33   1175.47   1720.63    70.73    906.50   61.95   False
   8.783    589.39    286.47   1168.22    974.33    61.94    877.03   60.86   False
   8.983    768.80    723.06   1160.97   1670.12    68.42   1546.15   67.16   False
   9.183   1447.04   1442.80   1153.72   2380.65    76.38   2531.38   77.76   False
   9.383   1790.49   1790.25   1146.48   2816.17     80.7   2649.69   79.25   False
   9.583   1363.94   1363.93   1139.23    2271.4    72.72   2171.75   71.75   False
   9.783    638.17    638.17   1131.98   1246.23    62.53   1157.09   61.57   False
   9.983    183.64    183.64   1124.73    674.62    56.73    593.59   55.76   False
  10.183     32.57     32.57   1117.48    690.47    55.49    574.28   54.09   False
  10.383      3.57      3.57   1110.23    650.11    54.77    447.35   52.21   False
  10.583      0.24      0.24   1102.98    497.37    53.33    447.73   52.69   False
  10.783      0.01      0.01   1095.74    549.61     52.2    475.87   51.27   False
  10.983      0.00      0.00   1088.49    619.58    53.45    436.48   51.27   False
  11.183      0.00      0.00   1081.24    631.83    52.53    653.12   52.77   False
  11.383      0.00      0.00   1073.99    459.72    51.33    493.73   51.79   False
  11.583      0.00      0.00   1066.74    439.19    51.03    571.14   52.61   False
  11.783      0.00      0.00   1059.49    455.23     51.0    406.06   50.45   False
  11.983      0.03      0.04   1052.24    538.38    50.19    536.00   50.17   False
  12.183      0.51      0.76   1044.99    573.93    46.73    579.49   46.81   False
  12.383      5.52      8.31   1037.75    502.59    37.94    624.97   39.05   False
  12.583     36.97     55.63   1030.50    382.09    37.94    483.50   38.88   False
  12.783    152.42    229.36   1023.25    548.98    38.74    632.66   39.48   False
  12.983    388.80    585.05   1016.00    759.49    40.63    910.88   41.91   False
  13.183    616.67    927.93   1008.75    938.97    42.75   1051.91   43.68   False
  13.383    611.57    920.26   1001.50    966.57    41.93   1127.24   43.23   False
  13.583    381.55    574.14    994.25    883.26    40.74    887.27   40.78   False
  13.783    150.73    226.82    987.01     599.7     38.5    592.61   38.42   False
  13.983     37.97     57.14    979.76    501.64    37.63    467.09   37.31   False
  14.183      6.17      9.26    972.51    406.53    37.28    396.74   37.19   False
  14.383      1.09      1.27    965.26    443.33    36.77    448.14   36.81   False
  14.583      5.67      3.95    963.43    397.42    36.61    482.80   37.39   False
  14.783     44.34     30.64    961.59    574.92    37.05    536.58   36.71   False
  14.983    218.76    151.12    959.76    672.48    38.06    514.49   36.69   False
  15.183    680.49    469.48    957.92    1218.7    42.36    956.73   40.30   False
  15.383   1351.11    926.37    956.09   2038.32    48.33   1581.72   45.19   False
  15.583   1763.39   1174.92    954.25   2473.27    51.42   1823.20   47.18   False
  15.783   1662.23    983.29    952.42   2408.49    51.36   1607.34   46.02   False
  15.983   1429.92    588.61    950.59   1924.68    47.46   1161.06   42.19   False
  16.183   1347.68    310.80    948.75   1843.13     46.2    916.40   39.55   False
  16.383   1162.16    178.23    946.92   1535.92    40.56    739.87   35.15   False
  16.583    736.52     97.32    945.08   1223.09     38.0    704.68   34.30   False
  16.783    317.37     40.30    943.25    781.62    34.78    576.06   33.25   False
  16.983     91.77     11.54    941.41    619.03    33.13    497.22   32.16   False
  17.183     17.88      2.24    939.58    505.57    31.83    598.13   32.55   False
  17.383      2.37      0.33    937.75    513.34    31.68    462.20   31.27   False
  17.583      0.29      0.61    935.91    489.86    31.63    426.67   31.16   False
  17.783      0.84      6.31    934.08    451.39    31.36    501.70   31.76   False
  17.983      5.80     44.19    932.24    508.04    31.77    475.44   31.52   False
  18.183     26.44    201.64    930.41    581.81    32.38    541.25   32.05   False
  18.383     79.25    604.44    928.57    562.86    32.51    906.08   34.98   False
  18.583    157.58   1201.88    926.74    766.89    33.35   1573.50   38.62   False
  18.783    209.89   1600.79    924.91    817.74    33.59   2054.02   41.36   False
  18.983    189.14   1442.31    923.07     796.7    33.16   1995.08   40.81   False
  19.183    117.06    888.09    921.24    750.51    32.89   1463.24   37.67   False
  19.383     56.94    379.80    919.40     484.9    31.53    800.24   33.81   False
  19.583     72.08    131.71    917.57    612.94    32.68    679.12   33.16   False
  19.783    296.04    125.38    915.73    781.23    34.38    676.61   33.67   False
  19.983   1004.62    353.62    913.90   1289.18    38.78    876.50   36.32   False
  20.183   2336.79    817.01    912.07   2615.92    46.49   1533.95   40.91   False
  20.383   3734.06   1312.76    910.23   4003.54    51.29   2123.31   42.79   False
  20.583   4152.42   1482.51    908.40   4419.98     50.0   2327.75   41.09   False
  20.783   3272.24   1213.57    906.56   3733.59    46.73   1967.75   38.70   False
  20.983   1880.57    759.35    904.73   2353.72    39.82   1378.38   34.74   False
  21.183    826.99    391.29    902.89   1232.64    32.87    838.03   30.55   False
  21.383    298.17    176.15    901.06    766.54    29.84    696.61   29.41   False
  21.583     93.73     68.85    899.23    641.73     28.8    530.86   28.07   False
  21.783     26.20     22.36    897.39    527.51    27.72    561.44   27.95   False
  21.983      9.39      8.01    895.56    530.99    28.18    446.06   27.62   False
  22.183     21.40     15.69    893.72     490.1    28.25    494.58   28.27   False
  22.383     83.09     59.93    891.89    514.55     29.3    500.51   29.22   False
  22.583    237.76    171.39    890.05    533.06    32.35    467.21   31.99   False
  22.783    483.37    348.43    888.22    648.52    35.82    582.96   35.50   False
  22.983    704.11    507.51    886.39    917.85    38.65    732.61   37.78   False
  23.183    743.07    535.24    884.55    1039.3    39.21    799.88   38.09   False
  23.383    581.39    416.09    882.72    939.74    37.64    802.83   36.98   False
  23.583    381.30    258.60    880.88    699.73    35.78    518.17   34.86   False
  23.783    357.80    195.28    879.05     775.6    35.29    659.02   34.71   False
  23.983    655.14    298.81    877.21    928.82    36.02    793.95   35.33   False
  24.183   1239.05    544.77    875.38   1633.96    37.75   1023.04   34.74   False
  24.383   1809.09    791.60    873.55   2188.94    38.83   1296.80   34.47   False
  24.583   1965.43    859.50    871.71   2444.96    38.05   1446.82   33.24   False
  24.783   1594.63    697.29    869.88   2116.27    32.38   1214.12   28.23   False
  24.983    974.47    426.10    868.04   1543.45    29.04    942.93   26.11   False
  25.183    452.83    197.97    866.21    977.04    26.34    667.36   24.66   False
  25.383    163.87     71.30    864.37    628.41    24.67    492.07   23.89   False
  25.583     61.67     24.75    862.54    487.43    24.15    480.94   24.11   False
  25.783     89.30     28.84    860.71    497.39    24.17    447.33   23.88   False
  25.983    272.90     84.60    858.87    647.35    25.27    465.60   24.25   False
  26.183    686.60    212.35    857.04   1052.79    27.22    625.33   24.98   False
  26.383   1303.73    403.20    855.20    1649.1    29.87    849.44   25.96   False
  26.583   1876.13    580.44    853.37   2207.57    32.63   1046.96   27.24   False
  26.783   2067.38    640.96    851.53    2333.0    32.98   1095.76   27.27   False
  26.983   1776.82    556.93    849.70   2142.82    32.02   1004.78   26.64   False
  27.183   1258.33    414.80    847.87   1673.56    29.65    836.33   25.43   False
  27.383    877.75    339.06    846.03   1322.86    27.92    765.03   24.99   False
  27.583    808.63    388.59    844.20   1287.82    27.03    830.93   24.66   False
  27.783    953.81    519.48    842.36   1472.66    28.48   1048.04   26.34   False
  27.983   1085.37    628.87    840.53   1567.65    29.09   1103.57   26.79   False
  28.183   1041.58    636.10    838.69   1574.07    29.08   1100.41   26.74   False
  28.383    823.24    534.09    836.86   1399.46    27.96   1031.16   26.08   False
  28.583    539.84    375.74    835.03   1030.61    26.35    743.96   24.80   False
  28.783    297.84    225.22    833.19    758.88    24.54    606.56   23.69   False
  28.983    142.08    123.68    831.36    628.06    23.52    556.65   23.12   False
  29.183     66.10     84.60    829.49    445.17    21.95    382.78   21.60   False
  29.383     44.39    102.78    826.98    449.58    21.93    467.35   22.03   False
  29.583     51.61    158.20    824.48     503.8    22.35    448.32   22.03   False
  29.783     67.16    216.77    821.97    509.06    22.33    546.19   22.53   False
  29.983     77.56    243.33    819.47    497.25    22.31    507.60   22.37   False
  30.183     82.22    225.29    816.96    490.91    21.67    560.91   22.05   False
  30.383     96.22    181.69    814.46    462.58    22.04    470.28   22.09   False
  30.583    142.69    144.37    811.95    561.88    22.53    470.89   22.02   False
  30.783    235.93    130.34    809.44    611.56    22.93    457.03   22.07   False
  30.983    363.94    132.43    806.94    801.05    24.01    517.54   22.48   False
  31.183    483.80    132.11    804.43    996.87    24.87    583.47   22.70   False
  31.383    541.17    117.56    801.93   1032.46    24.83    530.61   22.22   False
  31.583    506.26     91.07    799.42     964.6    24.52    545.47   22.32   False
  31.783    395.85     64.25    796.92    813.86    24.21    450.40   22.26   False
  31.983    259.54     49.77    794.41    686.45    23.58    412.70   22.08   False
  32.183    144.37     55.71    791.90     549.7    22.98    454.26   22.45   False
  32.383     71.43     82.45    789.40    422.51    22.74    341.25   22.29   False
  32.583     38.67    121.54    786.89    395.75    22.67    454.49   22.99   False
  32.783     38.21    160.54    784.39    505.26    22.81    514.08   22.85   False
  32.983     70.43    194.39    781.88    592.33    23.73    597.95   23.76   False
  33.183    144.96    233.16    779.38    578.01     23.9    627.39   24.15   False
  33.383    266.71    293.14    776.87     690.8    24.41    637.12   24.14   False
  33.583    416.57    375.08    774.36    904.55    24.59    776.17   23.95   False
  33.783    546.88    452.25    771.86     963.1    24.19    867.92   23.74   False
  33.983    604.42    485.22    769.35   1014.36    24.24    828.51   23.38   False
  34.183    565.73    451.70    766.85   1026.12     24.2    829.64   23.28   False
  34.383    452.73    363.23    764.34    835.89    23.52    712.27   22.92   False
  34.583    315.70    255.14    761.83    763.65    22.83    579.33   21.90   False
  34.783    201.59    162.77    759.33    633.36    21.85    547.65   21.40   False
  34.983    133.63    104.84    756.82    522.38     21.3    495.49   21.16   False
  35.183    110.94     82.02    754.32    468.79    20.78    426.16   20.56   False
  35.383    120.59     85.71    751.81    516.68    21.05    450.68   20.70   False
  35.583    151.07    108.23    749.31    517.87    21.25    468.35   20.99   False
  35.783    199.02    147.68    746.80    564.38    21.54    497.42   21.18   False
  35.983    264.91    204.09    744.29    659.37    21.96    554.50   21.41   False
  36.183    341.38    270.22    741.79    739.31    22.34    640.63   21.83   False
  36.383    406.70    326.95    739.28    780.55    22.82    714.19   22.49   False
  36.583    433.65    350.99    736.78    813.37    22.41    736.49   22.03   False
  36.783    408.52    330.20    734.27    824.91    22.94    682.31   22.22   False
  36.983    343.27    272.96    731.77    699.62    22.55    579.61   21.93   False
  37.183    269.93    203.23    729.26    648.17    22.53    553.46   22.05   False
  37.383    222.60    146.40    726.75    618.88    22.13    477.10   21.39   False
  37.583    222.06    117.92    724.25    616.44    22.19    463.55   21.39   False
  37.783    272.84    121.65    721.74    606.81     22.1    436.42   21.22   False
  37.983    371.80    155.72    719.24    760.71    22.67    510.51   21.40   False
  38.183    517.74    218.70    716.73    823.09    23.34    539.36   21.91   False
  38.383    709.66    309.10    714.23   1037.79    24.07    670.68   22.32   False
  38.583    931.64    418.19    711.72   1246.18    23.53    772.13   21.50   False
  38.783   1139.61    523.83    709.21   1453.93    24.36    901.20   22.05   False
  38.983   1270.57    595.23    706.71   1511.67    24.69    929.03   22.29   False
  39.183   1276.16    609.40    704.20   1552.58    24.28    959.34   21.89   False
  39.383   1156.24    567.38    701.70   1442.43    24.36    875.00   22.00   False
  39.583    963.50    496.44    699.19   1255.67    23.54    811.69   21.64   False
  39.783    774.41    434.99    696.69   1091.87    23.01    718.89   21.39   False
  39.983    648.81    410.88    694.18    994.66    22.68    794.16   21.81   False
  40.183    605.91    427.81    691.67    951.74    22.64    758.71   21.80   False
  40.383    628.00    467.68    689.17    965.42    22.32    805.74   21.64   False
  40.583    682.06    504.76    686.66   1014.54    22.55    825.05   21.74   False
  40.783    740.02    520.50    684.16   1103.25    23.07    834.50   21.91   False
  40.983    785.24    509.34    681.65   1184.43    23.15    847.84   21.69   False
  41.183    806.98    475.06    679.15   1163.32     23.0    841.60   21.60   False
  41.383    794.58    424.11    676.64   1189.78    22.82    840.43   21.29   False
  41.583    739.33    362.54    674.13   1103.75    22.47    744.38   20.87   False
  41.783    642.02    297.11    671.63    987.65    21.68    651.18   20.18   False
  41.983    517.54    236.73    669.12    895.73    21.68    550.27   20.08   False
  42.183    391.67    191.50    666.62    770.71    21.06    536.03   19.96   False
  42.383    292.49    169.90    664.11    739.94    20.69    566.98   19.86   False
  42.583    241.89    176.49    661.61    611.68    20.21    497.18   19.66   False
  42.783    250.24    211.01    659.10    579.35    20.14    496.71   19.75   False
  42.983    313.66    267.95    656.59    674.59    20.47    612.71   20.18   False
  43.183    413.41    336.19    654.09    799.77     21.0    660.72   20.36   False
  43.383    519.11    399.90    651.58    918.99     21.8    759.38   21.07   False
  43.583    597.19    442.32    649.08     970.8    21.71    813.78   21.02   False
  43.783    622.94    452.04    646.57     989.3    21.27    775.88   20.34   False
  43.983    589.86    428.11    644.07    935.56    21.05    741.83   20.21   False
  44.183    510.89    380.39    641.56    858.98    20.78    653.32   19.86   False
  44.383    410.88    324.45    639.05    747.31    19.91    644.53   19.46   False
  44.583    315.12    274.06    636.55    612.06     19.8    536.06   19.45   False
  44.783    240.45    236.06    634.04    593.74    19.54    552.90   19.36   False
  44.983    192.40    209.71    631.54    530.94    19.27    489.24   19.07   False
  45.183    167.61    189.98    629.43    528.63    19.13    500.05   19.00   False
  45.383    158.48    171.67    628.91    469.52    19.06    430.64   18.87   False
  45.583    157.47    152.09    628.39    534.29    19.03    473.40   18.74   False
  45.783    159.90    131.63    627.87    525.74    19.05    434.18   18.61   False
  45.983    165.29    113.02    627.36    550.94    19.36    430.33   18.78   False
  46.183    177.18    100.27    626.84    506.21    19.46    369.13   18.80   False
  46.383    201.83     97.93    626.32     552.6    19.45    408.85   18.76   False
  46.583    245.83    110.51    625.80    553.46    19.66    382.02   18.84   False
  46.783    313.49    141.63    625.28    687.62    19.99    445.80   18.86   False
  46.983    404.37    192.55    624.77    788.41    20.57    527.19   19.39   False
  47.183    511.73    260.54    624.25    865.62    21.07    582.79   19.80   False
  47.383    622.42    337.75    623.73    989.21    21.73    621.68   20.12   False
  47.583    719.08    412.11    623.21   1036.96    21.86    704.48   20.41   False
  47.783    784.78    470.51    622.69   1098.85    22.19    779.26   20.82   False
  47.983    809.06    503.51    622.17   1102.77    22.26    749.03   20.76   False
  48.183    792.49    509.23    621.66   1075.87    21.73    806.10   20.60   False
  48.383    747.38    494.23    621.14   1080.76    22.09    777.22   20.78   False
  48.583    693.61    470.74    620.62    966.23    21.67    775.51   20.84   False
  48.783    651.48    451.59    620.10    931.75    21.65    720.35   20.71   False
  48.983    634.62    445.26    619.58     951.5    21.58    724.42   20.58   False
  49.183    645.84    453.14    619.07   1002.48    21.72    756.01   20.64   False
  49.383    676.96    469.71    618.55   1031.25    20.95    788.10   19.94   False
  49.583    712.18    485.04    618.03    1069.0    21.06    796.87   19.93   False
  49.783    733.44    488.57    617.51   1083.97    21.42    778.77   20.16   False
  49.983    726.31    472.66    616.99   1064.51    21.38    774.61   20.16   False
  50.183    684.29    434.99    616.47    974.36    21.06    687.69   19.84   False
  50.383    610.46    379.02    615.96    951.34    20.77    694.11   19.66   False
  50.583    515.86    312.58    615.44     804.2    20.45    559.25   19.39   False
  50.783    415.47    245.25    614.92    714.32    19.84    494.37   18.89   False
  50.983    323.53    185.53    614.40    623.51    19.99    430.84   19.13   False
  51.183    249.78    138.95    613.88    586.16     19.9    364.58   18.88   False
  51.383    198.01    107.48    613.37    543.88    19.66    424.13   19.12   False
  51.583    166.62     90.13    612.85    488.87    19.43    342.94   18.76   False
  51.783    150.72     84.13    612.33    447.83    19.32    354.02   18.90   False
  51.983    144.54     86.24    611.81    513.26    19.42    340.74   18.63   False
  52.183    143.22     93.48    611.29    460.48    19.29    365.78   18.86   False
  52.383    143.64    103.47    610.77    478.07    19.69    385.82   19.27   False
  52.583    144.32    114.24    610.26     469.2    19.64    416.23   19.40   False
  52.783    144.77    124.04    609.74    457.61    19.69    420.67   19.53   False
  52.983    144.79    131.24    609.22    436.64    19.66    387.20   19.42   False
  53.183    144.14    134.61    608.70    469.28     19.9    363.95   19.42   False
  53.383    142.67    133.59    608.18    454.48    19.45    393.31   19.17   False
  53.583    140.67    128.76    607.67    433.11    19.83    384.81   19.61   False
  53.783    139.37    121.90    607.15    452.99    19.92    393.66   19.66   False
  53.983    141.11    115.95    606.63    460.91    20.11    385.75   19.77   False
  54.183    149.14    114.51    606.11    479.42    20.05    372.58   19.56   False
  54.383    166.84    121.13    605.59    514.08    20.17    406.62   19.69   False
  54.583    196.69    138.45    605.07    520.71    20.18    373.26   19.53   False
  54.783    239.10    167.40    604.56    556.73    20.36    444.45   19.87   False
  54.983    291.69    206.70    604.04    640.13    20.93    460.57   20.15   False
  55.183    349.33    252.93    603.52    772.45    21.23    619.57   20.56   False
  55.383    405.10    301.26    603.00    745.57    21.06    596.61   20.42   False
  55.583    451.96    346.48    602.48    827.09    21.06    654.50   20.32   False
  55.783    484.43    384.20    601.96     863.2    19.97    682.19   19.24   False
  55.983    499.86    411.49    601.45    816.19    19.45    712.54   19.04   False
  56.183    498.58    427.08    600.93    802.26    19.82    725.82   19.50   False
  56.383    483.33    430.93    600.41    762.03    19.72    668.88   19.34   False
  56.583    458.10    423.76    599.89    748.92    19.44    690.69   19.19   False
  56.783    426.97    406.62    599.37    764.06    19.41    674.79   19.05   False
  56.983    393.39    380.90    598.86    673.13    19.15    624.78   18.95   False
  57.183    360.03    348.47    598.34    658.88    18.93    591.05   18.65   False
  57.383    328.89    311.83    597.82    656.83    18.95    574.08   18.59   False
  57.583    301.56    274.09    597.30    647.48     19.0    549.50   18.58   False
  57.783    279.44    238.62    596.78    632.71    19.01    532.24   18.58   False
  57.983    263.72    208.63    596.26    579.93    18.76    485.92   18.35   False
  58.183    255.37    186.67    595.75    559.33    18.67    495.27   18.41   False
  58.383    254.97    174.39    595.23    578.68    18.69    409.25   17.96   False
  58.583    262.75    172.52    594.71    584.81    18.83    417.08   18.11   False
  58.783    278.57    180.98    594.19    575.37    19.05    432.76   18.46   False
  58.983    302.00    199.08    593.67    603.54    19.11    447.21   18.45   False
  59.183    332.27    225.58    593.16    640.61    19.32    474.09   18.60   False
  59.383    368.09    258.74    592.64     684.9    19.35    529.04   18.68   False
  59.583    407.44    296.09    592.12    710.68    19.57    544.50   18.87   False
  59.783    447.42    334.44    591.60    787.38    19.55    615.82   18.84   False
  59.983    484.36    370.00    591.08    809.81    20.02    642.48   19.34   False
  60.183    514.16    398.75    590.56    823.77    19.97    695.08   19.44   False
  60.383    533.07    417.13    590.05    826.28    20.05    698.82   19.54   False
  60.583    538.38    422.67    589.53    838.05    20.14    678.24   19.49   False
  60.783    529.10    414.56    589.01    754.59     19.7    635.75   19.21   False
  60.983    506.11    393.74    588.49    714.59    19.58    604.37   19.14   False
  61.183    471.94    362.69    587.97    688.71    19.42    583.78   19.01   False
  61.383    430.14    324.84    587.46    696.51    19.61    582.59   19.13   False
  61.583    384.55    283.86    586.94    675.24    19.53    569.00   19.08   False
  61.783    338.59    243.07    586.42    613.01    19.43    457.24   18.76   False
  61.983    294.89    205.03    585.90     637.1    19.31    470.77   18.60   False
  62.183    255.23    171.43    585.38    544.48    19.14    396.37   18.50   False
  62.383    220.66    143.24    584.86    516.27    18.73    352.58   18.03   False
  62.583    191.85    120.88    584.35    455.27    18.93    362.03   18.51   False
  62.783    169.30    104.49    583.83    474.72     19.0    379.43   18.60   False
  62.983    153.49     94.06    583.31    456.16    18.89    383.13   18.55   False
  63.183    144.88     89.54    582.79    466.05    18.86    356.88   18.37   False
  63.383    143.77     90.78    582.27    456.94    18.38    326.35   17.84   False
  63.583    150.28     97.58    581.76    440.41    18.02    354.34   17.65   False
  63.783    164.28    109.67    581.24    512.77    18.29    418.84   17.88   False
  63.983    185.51    126.83    580.72    488.59    18.45    414.36   18.14   False
  64.183    213.73    149.01    580.20    548.22    18.59    454.19   18.17   False
  64.383    248.83    176.34    579.68    630.73    18.73    492.07   18.14   False
  64.583    290.84    209.12    579.16    605.66    18.78    437.66   18.07   False
  64.783    339.67    247.53    578.65    659.66    18.98    516.44   18.38   False
  64.983    394.75    291.37    578.13    782.99     19.1    592.39   18.33   False
  65.183    454.60    339.60    577.61    839.92     19.7    625.32   18.81   False
  65.383    516.53    390.15    577.09     919.4    19.95    696.39   19.04   False
  65.583    576.62    439.91    576.57    924.99    20.01    707.15   19.14   False
  65.783    630.15    485.04    576.05    1017.5    20.21    801.94   19.36   False
  65.983    672.30    521.57    575.54   1000.25    20.27    785.10   19.42   False
  66.183    699.01    546.07    575.02   1035.91    20.12    838.97   19.36   False
  66.383    707.73    556.31    574.50   1062.77    20.26    814.77   19.29   False
  66.583    697.92    551.61    573.98   1023.34    20.31    820.36   19.51   False
  66.783    671.06    532.97    573.46     950.9    20.05    786.30   19.38   False
  66.983    630.34    502.73    572.95    901.83    19.85    723.91   19.11   False
  67.183    579.99    464.18    572.43    858.09    19.68    703.26   19.04   False
  67.383    524.63    420.94    571.91    788.71    19.33    663.21   18.81   False
  67.583    468.59    376.50    571.39    818.61    19.15    622.00   18.35   False
  67.783    415.54    333.91    570.87    731.56    19.16    609.02   18.65   False
  67.983    368.22    295.53    570.35    699.64    19.07    587.80   18.58   False
  68.183    328.50    263.04    569.77    615.29    18.76    508.89   18.30   False
  68.383    297.39    237.47    569.14    584.64    18.69    450.59   18.11   False
  68.583    275.24    219.33    568.50    610.66    18.77    481.61   18.19   False
  68.783    261.83    208.61    567.87    515.66    18.57    438.07   18.22   False
  68.983    256.47    204.89    567.24    566.21    18.84    513.38   18.61   False
  69.183    258.10    207.37    566.61    557.98    19.09    489.74   18.80   False
  69.383    265.30    214.87    565.98    590.37     19.1    496.35   18.68   False
  69.583    276.44    225.95    565.34    602.21     19.1    494.58   18.61   False
  69.783    289.74    238.96    564.71    610.71    19.04    558.70   18.80   False
  69.983    303.39    252.18    564.08    631.87    19.24    495.94   18.65   False
  70.183    315.78    264.05    563.45    614.17    19.33    526.89   18.93   False
  70.383    325.57    273.27    562.81    591.01    19.73    555.20   19.57   False
  70.583    331.85    278.98    562.18    682.02     19.9    570.09   19.41   False
  70.783    334.26    280.89    561.55    671.82    19.93    558.63   19.42   False
  70.983    332.94    279.25    560.92    620.64    19.65    564.74   19.40   False
  71.183    328.52    274.82    560.29     672.9    19.91    521.03   19.23   False
  71.383    321.97    268.70    559.65    623.43    19.82    521.46   19.37   False
  71.583    314.47    262.20    559.02     650.8    20.39    527.79   19.83   False
  71.783    307.17    256.57    558.39     656.9    20.31    562.97   19.88   False
  71.983    301.06    252.82    557.76    610.22    20.36    494.24   19.83   False
  72.183    296.81    251.64    557.13    570.86     20.2    472.73   19.73   False
  72.383    294.73    253.25    556.49    576.21    20.21    466.77   19.70   False
  72.583    294.76    257.44    555.86    611.69    20.39    520.16   19.97   False
  72.783    296.54    263.66    555.23    659.55    20.73    527.62   20.12   False
  72.983    299.50    271.14    554.60    614.16    20.83    557.11   20.54   False
  73.183    303.05    279.04    553.96    639.04    21.14    550.08   20.71   False
  73.383    306.68    286.64    553.33    596.43    20.82    572.05   20.70   False
  73.583    310.09    293.43    552.70    557.56    20.74    532.20   20.61   False
  73.783    313.22    299.20    552.07    562.18    20.65    539.59   20.54   False
  73.983    316.28    304.08    551.44    614.91    20.34    573.38   20.15   False
  74.183    319.67    308.43    550.80    648.89    20.81    601.64   20.60   False
  74.383    323.85    312.72    550.17    644.83     20.9    598.98   20.67   False
  74.583    329.23    317.44    549.54    647.35    20.85    604.49   20.66   False
  74.783    336.02    322.89    548.91    625.47    20.75    583.45   20.56   False
  74.983    344.14    329.10    548.28    659.67    20.98    571.60   20.56   False
  75.183    353.19    335.80    547.64    598.98    20.63    555.60   20.43   False
  75.383    362.46    342.41    547.01    649.05     21.1    590.07   20.82   False
  75.583    371.08    348.14    546.38    720.45    21.57    600.83   21.01   False
  75.783    378.08    352.16    545.75    704.04    21.52    644.58   21.24   False
  75.983    382.62    353.67    545.12     639.5    21.38    591.09   21.14   False
  76.183    384.07    352.13    544.48    681.64    21.39    628.85   21.15   False
  76.383    382.14    347.31    543.85    717.42    21.59    602.84   21.04   False
  76.583    376.92    339.38    543.22    691.49    21.53    616.86   21.16   False
  76.783    368.88    328.84    542.59    666.95    21.93    634.47   21.77   False
  76.983    358.78    316.51    541.95    670.42    22.02    540.49   21.38   False
  77.183    347.58    303.43    541.32    627.38    21.94    483.20   21.22   False
  77.383    336.34    290.70    540.69    554.07    21.69    521.92   21.53   False
  77.583    326.10    279.37    540.06    578.27    21.76    535.31   21.53   False
  77.783    317.72    270.34    539.43    603.68    21.85    443.49   21.07   False
  77.983    311.86    264.28    538.79    612.98    22.41    433.23   21.49   False
  78.183    308.91    261.55    538.16    636.95     22.6    496.25   21.89   False
  78.383    308.98    262.23    537.53    602.01    22.52    449.83   21.72   False
  78.583    311.89    266.07    536.90    605.13    22.55    514.09   22.08   False
  78.783    317.23    272.61    536.27    618.76     22.5    485.65   21.80   False
  78.983    324.42    281.19    535.63    583.18    22.41    487.78   21.93   False
  79.183    332.76    291.00    535.00    586.35    22.52    510.53   22.15   False
  79.383    341.51    301.24    534.37    633.06    23.39    538.35   22.92   False
  79.583    349.94    311.08    533.74    668.07    23.68    592.58   23.30   False
  79.783    357.42    319.82    533.10    673.48    23.59    539.33   22.89   False
  79.983    363.39    326.88    532.47    620.36    23.39    568.03   23.12   False
  80.183    367.48    331.83    531.84    697.11    23.49    609.58   23.03   False
  80.383    369.44    334.43    531.21    696.35    23.69    559.43   23.00   False

loop_phase1
_pd_peak_index_h
_pd_peak_index_k
_pd_peak_index_l
_pd_peak_2theta
_pd_peak_intensity_plus
_pd_peak_intensity_minus
   1    1   1    8.13   4275.52    806.38
   2    0   0    9.39   1281.76   1281.76
   2    2   0   13.29    477.25    718.15
   3    1   1   15.60   1275.63    881.50
   2    2   2   16.30    888.81    111.43
   4    0   0   18.84    170.50   1300.40
   3    3   1   20.55   3455.40   1203.43
   4    2   0   21.09    140.87    140.87
   4    2   2   23.13    672.12    484.48
   3    3   3   24.55     30.19    415.00
   5    1   1   24.55   1797.43    384.16
   4    4   0   26.77   2024.00    625.90
   5    3   1   28.02    962.88    513.66
   4    4   2   28.43    140.01    140.01
   6    0   0   28.43     69.15     69.15
   6    2   0   30.00     77.43    256.72
   5    3   3   31.13    149.40    114.01
   6    2   2   31.50    489.42     33.86
   4    4   4   32.94     11.57    175.12
   5    5   1   33.98     49.08    156.19
   7    1   1   33.98    595.52    332.31
   6    4   0   34.33     95.74     95.74
   6    4   2   35.66    124.05     81.73
   5    5   3   36.64    480.51    227.06
   7    3   1   36.64     50.24    207.02
   8    0   0   38.22    344.73    127.65
   7    3   3   39.14   1614.92    744.96
   6    4   4   39.44     49.69     49.69
   8    2   0   39.44      4.57      4.57
   6    6   0   40.64    264.60    127.32
   8    2   2   40.64    425.70    457.16
   7    5   1   41.51    294.79    194.83
   5    5   5   41.51    412.34    165.01
   6    6   2   41.80    211.56     15.16
   8    4   0   42.94      9.99    118.85
   9    1   1   43.78     90.57     15.15
   7    5   3   43.78    823.02    586.92
   8    4   2   44.05     31.56     31.56
   6    6   4   45.15    102.11    209.64
   9    3   1   45.95    167.61     75.43
   8    4   4   47.27    334.66     90.57
   9    3   3   48.05    401.26    324.01
   7    7   1   48.05    645.65    378.42
   7    5   5   48.05     57.35     35.04
   8    6   0   48.31     10.60     10.60
  10    0   0   48.31      7.36      7.36
   8    6   2   49.33    167.57    135.56
  10    2   0   49.33    238.06    187.56
   9    5   1   50.09    816.33    392.95
   7    7   3   50.09     50.20    208.96
   6    6   6   50.34     39.87      4.74
  10    2   2   50.34    119.60     14.23
   9    5   3   52.06    157.82     61.34
   8    6   4   52.30     17.76     17.76
  10    4   0   52.30     16.55     16.55
  10    4   2   53.27    137.09    179.64
  11    1   1   53.98    102.62     59.50
   7    7   5   53.98      8.62      6.74
   8    8   0   55.16     61.52     14.38
   9    5   5   55.86      2.97     43.46
   9    7   1   55.86    304.07    243.37
  11    3   1   55.86    471.86    293.02
  10    4   4   56.09     10.10     10.10
   8    8   2   56.09      6.42      6.42
   8    6   6   57.01      9.77      6.53
  10    6   0   57.01    380.30    490.28
  11    3   3   57.69      3.78     32.33
   9    7   3   57.69     13.32     19.04
  10    6   2   57.92    156.65     30.90
  12    0   0   58.82      3.39     17.52
   8    8   4   58.82    135.90     47.42
  11    5   1   59.49     41.95     25.01
   7    7   7   59.49    257.55    173.93
  12    2   0   59.71      0.24      0.24
  10    6   4   60.60    538.75    418.28
  12    2   2   60.60    276.66    272.38
  11    5   3   61.26     98.29     61.04
   9    7   5   61.26    160.41    118.24
  12    4   0   62.35    226.61    122.41
   9    9   1   62.99     20.30      2.29
  12    4   2   63.21      2.37      2.37
   8    8   6   63.21      3.17      3.17
  10    8   0   63.21      3.69      3.69
  10    8   2   64.06      4.40      4.92
   9    9   3   64.70     55.12     28.87
  11    7   1   64.70     15.24      2.01
  13    1   1   64.70     34.54     14.84
  11    5   5   64.70    231.86    209.05
  10    6   6   64.92     56.51     16.59
  12    4   4   65.76     22.47      2.53
  13    3   1   66.39    472.36    394.94
  11    7   3   66.39    758.63    546.06
   9    7   7   66.39    271.89    245.32
  12    6   0   66.60      0.85      0.85
  10    8   4   66.60      5.23      5.23
  12    6   2   67.43    136.91    144.32
  13    3   3   68.06     29.65     39.51
   9    9   5   68.06    264.39    175.63
   8    8   8   69.09      3.72     12.42
  11    7   5   69.70    182.78    138.21
  13    5   1   69.70     90.08     44.52
  12    6   4   69.91      1.81      1.81
  14    0   0   69.91      0.74      0.74
  14    2   0   70.72     77.48     84.82
  10   10   0   70.72    290.51    256.53
  10    8   6   70.72     75.09     97.67
  11    9   1   71.33    148.11    130.16
  13    5   3   71.33     26.03     10.98
  10   10   2   71.53     43.71     17.38
  14    2   2   71.53     43.71     17.38
  12    8   0   72.34     53.00     24.35
  11    9   3   72.94    214.02    191.11
   9    9   7   72.94     74.48     60.36
  12    8   2   73.14      1.81      1.81
  14    4   0   73.14      1.95      1.95
  12    6   6   73.94      3.32      2.34
  14    4   2   73.94     51.05     44.85
  10   10   4   73.94    334.30    377.03
  11    7   7   74.54     11.07     29.75
  13    7   1   74.54      3.70      6.68
  13    5   5   74.54    141.29    100.01
  12    8   4   75.53      5.65      0.89
  11    9   5   76.13      9.00      6.03
  13    7   3   76.13    734.55    701.26
  15    1   1   76.13      6.17      2.94
  14    4   4   76.33      1.30      1.30
  10    8   8   76.33      0.89      0.89
  14    6   0   77.11    233.54    211.24
  15    3   1   77.70     86.81     62.57
  14    6   2   77.90     71.31     35.76
  10   10   6   77.90     35.66     17.88
   9    9   9   79.27      1.49      0.11
  13    7   5   79.27    238.93    214.22
  11   11   1   79.27     62.76     45.39
  15    3   3   79.27    140.98    114.22
  12    8   6   79.47      0.98      0.98
  12   10   0   79.47      0.44      0.44
  12   10   2   80.25     11.28     10.05
  14    6   4   80.25    224.30    249.99
  11    9   7   80.83     14.06      9.75
  11   11   3   80.83      1.79      0.16
  13    9   1   80.83     69.66     44.02
  15    5   1   80.83    390.37    365.10
  16    0   0   81.80    104.24     90.30
  13    9   3   82.38    293.63    254.46
  15    5   3   82.38     26.57     19.24
  16    2   0   82.58      0.01      0.01
  12   10   4   82.58      0.69      0.69
  14    8   0   82.58      0.57      0.57
  10   10   8   83.35    126.79    114.59
  16    2   2   83.35     68.97     69.34
  14    8   2   83.35      9.74      8.44
  11   11   5   83.93     73.34     62.51
  13    7   7   83.93     39.73     43.25
  14    6   6   84.12     30.34     18.21

loop_phase1
_refln_index_h
_refln_index_k
_refln_index_l
_refln_a_calc
_refln_b_calc
   1    1   1     6.8985   0.0000
   2    0   0     0.0000   0.0000
   2    2   0     1.7014   0.0000
   3    1   1    -4.6134   0.0000
   2    2   2     7.3152   0.0000
   4    0   0   -19.7654   0.0000
   3    3   1   -20.5082   0.0000
   4    2   0     0.0000   0.0000
   4    2   2    -7.1176   0.0000
   3    3   3    -8.9963   0.0000
   5    1   1    16.0677   0.0000
   4    4   0    28.9796   0.0000
   5    3   1    -9.0540   0.0000
   4    4   2    -0.0000   0.0000
   6    0   0     0.0000   0.0000
   6    2   0     7.4154   0.0000
   5    3   3    -2.4580   0.0000
   6    2   2     7.3152   0.0000
   4    4   4    -8.9331   0.0000
   5    5   1    -2.4003   0.0000
   7    1   1   -14.7246   0.0000
   6    4   0     0.0000   0.0000
   6    4   2    -1.9992   0.0000
   5    5   3   -13.9122   0.0000
   7    3   1     3.2127   0.0000
   8    0   0    24.4662   0.0000
   7    3   3    28.3343   0.0000
   6    4   4    -0.0000   0.0000
   8    2   0     0.0000   0.0000
   6    6   0   -16.5321   0.0000
   8    2   2    17.0472   0.0000
   7    5   1    -8.2416   0.0000
   5    5   5    25.3665   0.0000
   6    6   2     7.3152   0.0000
   8    4   0    -4.4196   0.0000
   9    1   1     5.1795   0.0000
   7    5   3   -16.8801   0.0000
   8    4   2    -0.0000   0.0000
   6    6   4    11.1159   0.0000
   9    3   1    -6.3324   0.0000
   8    4   4    13.6339   0.0000
   9    3   3   -18.7892   0.0000
   7    7   1   -22.5507   0.0000
   7    5   5    -5.4258   0.0000
   8    6   0     0.0000   0.0000
  10    0   0    -0.0000   0.0000
   8    6   2    -7.9304   0.0000
  10    2   0   -15.0126   0.0000
   9    5   1    17.7867   0.0000
   7    7   3   -11.0388   0.0000
   6    6   6     7.3152   0.0000
  10    2   2     7.3152   0.0000
   9    5   3    -7.3350   0.0000
   8    6   4     0.0000   0.0000
  10    4   0     0.0000   0.0000
  10    4   2     9.5964   0.0000
  11    1   1    -9.5460   0.0000
   7    7   5    -0.4155   0.0000
   8    8   0     9.1204   0.0000
   9    5   5    -4.1193   0.0000
   9    7   1   -13.0056   0.0000
  11    3   1   -15.5756   0.0000
  10    4   4     0.0000   0.0000
   8    8   2    -0.0000   0.0000
   8    6   6    -1.1863   0.0000
  10    6   0    24.1293   0.0000
  11    3   3    -4.0637   0.0000
   9    7   3     1.4937   0.0000
  10    6   2     7.3152   0.0000
  12    0   0    -6.9774   0.0000
   8    8   4    10.9262   0.0000
  11    5   1    -4.1214   0.0000
   7    7   7    30.3768   0.0000
  12    2   0    -0.0000   0.0000
  10    6   4   -18.7132   0.0000
  12    2   2   -19.9056   0.0000
  11    5   3    -7.3906   0.0000
   9    7   5    -9.9606   0.0000
  12    4   0    16.1916   0.0000
   9    9   1     3.4605   0.0000
  12    4   2    -0.0000   0.0000
   8    8   6    -0.0000   0.0000
  10    8   0     0.0000   0.0000
  10    8   2     0.3332   0.0000
   9    9   3    -8.0514   0.0000
  11    7   1    -1.7199   0.0000
  13    1   1     6.0459   0.0000
  11    5   5   -18.8448   0.0000
  10    6   6     7.3152   0.0000
  12    4   4     3.8549   0.0000
  13    3   1   -19.0757   0.0000
  11    7   3    23.4017   0.0000
   9    7   7   -20.8317   0.0000
  12    6   0    -0.0000   0.0000
  10    8   4    -0.0000   0.0000
  12    6   2    10.7888   0.0000
  13    3   3     7.5638   0.0000
   9    9   5    19.5057   0.0000
   8    8   8    -6.2254   0.0000
  11    7   5   -11.9475   0.0000
  13    5   1     7.6215   0.0000
  12    6   4    -0.0000   0.0000
  14    0   0     0.0000   0.0000
  14    2   0    12.2267   0.0000
  10   10   0   -31.7266   0.0000
  10    8   6     8.7836   0.0000
  11    9   1   -11.2650   0.0000
  13    5   3    -3.8905   0.0000
  10   10   2     7.3152   0.0000
  14    2   2     7.3152   0.0000
  12    8   0     8.3684   0.0000
  11    9   3   -13.8566   0.0000
   9    9   7   -11.2866   0.0000
  12    8   2    -0.0000   0.0000
  14    4   0    -0.0000   0.0000
  12    6   6    -1.6721   0.0000
  14    4   2    -6.8106   0.0000
  10   10   4    26.3104   0.0000
  11    7   7    -6.1062   0.0000
  13    7   1     1.7802   0.0000
  13    5   5    15.3447   0.0000
  12    8   4     0.8458   0.0000
  11    9   5    -2.4024   0.0000
  13    7   3   -26.9018   0.0000
  15    1   1    -2.7881   0.0000
  14    4   4     0.0000   0.0000
  10    8   8    -0.0000   0.0000
  14    6   0   -21.3435   0.0000
  15    3   1    -8.7239   0.0000
  14    6   2     7.3152   0.0000
  10   10   6     7.3152   0.0000
   9    9   9     1.7415   0.0000
  13    7   5   -15.4476   0.0000
  11   11   1   -10.6431   0.0000
  15    3   3    16.3978   0.0000
  12    8   6     0.0000   0.0000
  12   10   0     0.0000   0.0000
  12   10   2    -3.1916   0.0000
  14    6   4    15.9273   0.0000
  11    9   7    -3.4389   0.0000
  11   11   3     0.8689   0.0000
  13    9   1     7.7649   0.0000
  15    5   1   -20.1781   0.0000
  16    0   0    29.1555   0.0000
  13    9   3   -17.3567   0.0000
  15    5   3    -4.9435   0.0000
  16    2   0    -0.0000   0.0000
  12   10   4    -0.0000   0.0000
  14    8   0    -0.0000   0.0000
  10   10   8   -16.3808   0.0000
  16    2   2    12.3580   0.0000
  14    8   2    -3.1191   0.0000
  11   11   5   -12.3231   0.0000
  13    7   7     9.6063   0.0000
  14    6   6     7.3152   0.0000


data_phase1

_cell_length_a 10.263550
_cell_length_b 10.263550
_cell_length_c 10.263550
_cell_angle_alpha 90.000000
_cell_angle_beta 90.000000
_cell_angle_gamma 90.000000

_space_group_name_H-M_alt "F d -3 m"
_space_group_IT_coordinate_system_code 2

loop_
_atom_site_label
_atom_site_type_symbol
_atom_site_fract_x
_atom_site_fract_y
_atom_site_fract_z
_atom_site_occupancy
_atom_site_adp_type
_atom_site_U_iso_or_equiv
_atom_site_multiplicity
_atom_site_Wyckoff_symbol
  Ho1   Ho3+   0.500000   0.500000   0.500000   1.0   Uiso   0.0   16   d
  Ti1   Ti3+   0.000000   0.000000   0.000000   1.0   Uiso   0.0   16   c
   O1    O2-   0.329600   0.125000   0.125000   1.0   Uiso   0.0   48   f
   O2    O2-   0.375000   0.375000   0.375000   1.0   Uiso   0.0    8   b

loop_
_atom_site_susceptibility_label
_atom_site_susceptibility_chi_type
_atom_site_susceptibility_chi_11
_atom_site_susceptibility_chi_22
_atom_site_susceptibility_chi_33
_atom_site_susceptibility_chi_12
_atom_site_susceptibility_chi_13
_atom_site_susceptibility_chi_23
  Ho1   Cani   3.2810(35)   3.28100   3.28100   3.7120(31)   3.71200   3.71200

loop_
_atom_site_scat_label
_atom_site_scat_Lande
_atom_site_scat_kappa
  Ho1   2.0   1.0

